TimeStamp,Delta_TP9,Delta_AF7,Delta_AF8,Delta_TP10,Theta_TP9,Theta_AF7,Theta_AF8,Theta_TP10,Alpha_TP9,Alpha_AF7,Alpha_AF8,Alpha_TP10,Beta_TP9,Beta_AF7,Beta_AF8,Beta_TP10,Gamma_TP9,Gamma_AF7,Gamma_AF8,Gamma_TP10,RAW_TP9,RAW_AF7,RAW_AF8,RAW_TP10,AUX_RIGHT,Accelerometer_X,Accelerometer_Y,Accelerometer_Z,Gyro_X,Gyro_Y,Gyro_Z,HeadBandOn,HSI_TP9,HSI_AF7,HSI_AF8,HSI_TP10,Battery,Elements
2024-12-21 15:11:11.617,,,,,,,,,,,,,,,,,,,,,,,,,,,,,,,,,,,,,,/muse/event/connected Muse-FE6F
2024-12-21 15:11:11.656,0.7690498,0.8932879,0.8746887,0.6844467,0.74090904,0.56733525,0.14214487,0.6361572,0.9069843,0.36747223,0.23037204,0.8510666,0.8511633,0.19393292,0.10752429,0.96066934,0.54136866,-0.13614775,-0.18398386,0.5224246,799.81683,804.65204,829.2308,804.2491,516.9597,0.15545654296875,0.23736572265625,0.96917724609375,2.011260986328125,-0.13458251953125,1.861724853515625,1,1.0,1.0,1.0,1.0,80.00
2024-12-21 15:11:11.656,0.7690498,0.8932879,0.8746887,0.6844467,0.74090904,0.56733525,0.14214487,0.6361572,0.9069843,0.36747223,0.23037204,0.8510666,0.8511633,0.19393292,0.10752429,0.96066934,0.54136866,-0.13614775,-0.18398386,0.5224246,817.1429,800.2198,830.84247,811.50183,618.49817,0.15545654296875,0.23736572265625,0.96917724609375,2.011260986328125,-0.13458251953125,1.861724853515625,1,1.0,1.0,1.0,1.0,80.00
2024-12-21 15:11:11.657,0.7690498,0.8932879,0.8746887,0.6844467,0.74090904,0.56733525,0.14214487,0.6361572,0.9069843,0.36747223,0.23037204,0.8510666,0.8511633,0.19393292,0.10752429,0.96066934,0.54136866,-0.13614775,-0.18398386,0.5224246,838.0952,801.4286,833.2601,828.8278,812.3077,0.15545654296875,0.23736572265625,0.96917724609375,2.011260986328125,-0.13458251953125,1.861724853515625,1,1.0,1.0,1.0,1.0,80.00
2024-12-21 15:11:11.657,0.7690498,0.8932879,0.8746887,0.6844467,0.74090904,0.56733525,0.14214487,0.6361572,0.9069843,0.36747223,0.23037204,0.8510666,0.8511633,0.19393292,0.10752429,0.96066934,0.54136866,-0.13614775,-0.18398386,0.5224246,814.7253,807.47253,830.84247,831.6484,541.9414,0.15545654296875,0.23736572265625,0.96917724609375,2.011260986328125,-0.13458251953125,1.861724853515625,1,1.0,1.0,1.0,1.0,80.00
2024-12-21 15:11:11.658,0.7690498,0.8932879,0.8746887,0.6844467,0.74090904,0.56733525,0.14214487,0.6361572,0.9069843,0.36747223,0.23037204,0.8510666,0.8511633,0.19393292,0.10752429,0.96066934,0.54136866,-0.13614775,-0.18398386,0.5224246,795.78754,801.02563,832.4542,813.5165,381.97803,0.15545654296875,0.23736572265625,0.96917724609375,2.011260986328125,-0.13458251953125,1.861724853515625,1,1.0,1.0,1.0,1.0,80.00
2024-12-21 15:11:11.658,0.7690498,0.8932879,0.8746887,0.6844467,0.74090904,0.56733525,0.14214487,0.6361572,0.9069843,0.36747223,0.23037204,0.8510666,0.8511633,0.19393292,0.10752429,0.96066934,0.54136866,-0.13614775,-0.18398386,0.5224246,801.8315,795.78754,838.9011,802.23444,694.2491,0.15545654296875,0.23736572265625,0.96917724609375,2.011260986328125,-0.13458251953125,1.861724853515625,1,1.0,1.0,1.0,1.0,80.00
2024-12-21 15:11:11.658,0.7690498,0.8932879,0.8746887,0.6844467,0.74090904,0.56733525,0.14214487,0.6361572,0.9069843,0.36747223,0.23037204,0.8510666,0.8511633,0.19393292,0.10752429,0.96066934,0.54136866,-0.13614775,-0.18398386,0.5224246,816.7399,788.1319,837.28937,809.0842,726.08057,0.15545654296875,0.23736572265625,0.96917724609375,2.011260986328125,-0.13458251953125,1.861724853515625,1,1.0,1.0,1.0,1.0,80.00
2024-12-21 15:11:11.659,0.7690498,0.8932879,0.8746887,0.6844467,0.74090904,0.56733525,0.14214487,0.6361572,0.9069843,0.36747223,0.23037204,0.8510666,0.8511633,0.19393292,0.10752429,0.96066934,0.54136866,-0.13614775,-0.18398386,0.5224246,810.293,787.326,830.4396,812.3077,530.65936,0.15545654296875,0.23736572265625,0.96917724609375,2.011260986328125,-0.13458251953125,1.861724853515625,1,1.0,1.0,1.0,1.0,80.00
2024-12-21 15:11:11.659,0.7690498,0.8932879,0.8746887,0.6844467,0.74090904,0.56733525,0.14214487,0.6361572,0.9069843,0.36747223,0.23037204,0.8510666,0.8511633,0.19393292,0.10752429,0.96066934,0.54136866,-0.13614775,-0.18398386,0.5224246,805.05493,794.17584,831.2454,803.44324,327.58243,0.15545654296875,0.23736572265625,0.96917724609375,2.011260986328125,-0.13458251953125,1.861724853515625,1,1.0,1.0,1.0,1.0,80.00
2024-12-21 15:11:11.660,0.7690498,0.8932879,0.8746887,0.6844467,0.74090904,0.56733525,0.14214487,0.6361572,0.9069843,0.36747223,0.23037204,0.8510666,0.8511633,0.19393292,0.10752429,0.96066934,0.54136866,-0.13614775,-0.18398386,0.5224246,807.47253,788.93774,834.87177,804.2491,420.2564,0.15545654296875,0.23736572265625,0.96917724609375,2.011260986328125,-0.13458251953125,1.861724853515625,1,1.0,1.0,1.0,1.0,80.00
2024-12-21 15:11:11.660,0.7690498,0.8932879,0.8746887,0.6844467,0.74090904,0.56733525,0.14214487,0.6361572,0.9069843,0.36747223,0.23037204,0.8510666,0.8511633,0.19393292,0.10752429,0.96066934,0.54136866,-0.13614775,-0.18398386,0.5224246,804.65204,791.3553,834.4689,811.0989,618.49817,0.15545654296875,0.23736572265625,0.96917724609375,2.011260986328125,-0.13458251953125,1.861724853515625,1,1.0,1.0,1.0,1.0,80.00
2024-12-21 15:11:11.660,0.7690498,0.8932879,0.8746887,0.6844467,0.74090904,0.56733525,0.14214487,0.6361572,0.9069843,0.36747223,0.23037204,0.8510666,0.8511633,0.19393292,0.10752429,0.96066934,0.54136866,-0.13614775,-0.18398386,0.5224246,801.02563,801.8315,832.0513,805.4579,320.7326,0.15545654296875,0.23736572265625,0.96917724609375,2.011260986328125,-0.13458251953125,1.861724853515625,1,1.0,1.0,1.0,1.0,80.00
2024-12-21 15:11:11.663,0.7690498,0.8932879,0.8746887,0.6844467,0.74090904,0.56733525,0.14214487,0.6361572,0.9069843,0.36747223,0.23037204,0.8510666,0.8511633,0.19393292,0.10752429,0.96066934,0.54136866,-0.13614775,-0.18398386,0.5224246,808.2784,806.6667,829.6337,796.99634,451.28204,0.1500244140625,0.2315673828125,0.96697998046875,0.441131591796875,-0.8074951171875,0.059814453125,1,1.0,1.0,1.0,1.0,80.00
2024-12-21 15:11:11.663,0.7690498,0.8932879,0.8746887,0.6844467,0.74090904,0.56733525,0.14214487,0.6361572,0.9069843,0.36747223,0.23037204,0.8510666,0.8511633,0.19393292,0.10752429,0.96066934,0.54136866,-0.13614775,-0.18398386,0.5224246,810.696,808.68134,826.0073,793.7729,550.0,0.1500244140625,0.2315673828125,0.96697998046875,0.441131591796875,-0.8074951171875,0.059814453125,1,1.0,1.0,1.0,1.0,80.00
2024-12-21 15:11:11.664,0.7690498,0.8932879,0.8746887,0.6844467,0.74090904,0.56733525,0.14214487,0.6361572,0.9069843,0.36747223,0.23037204,0.8510666,0.8511633,0.19393292,0.10752429,0.96066934,0.54136866,-0.13614775,-0.18398386,0.5224246,794.57874,809.89014,826.8132,789.34064,434.7619,0.1500244140625,0.2315673828125,0.96697998046875,0.441131591796875,-0.8074951171875,0.059814453125,1,1.0,1.0,1.0,1.0,80.00
2024-12-21 15:11:11.664,0.7690498,0.8932879,0.8746887,0.6844467,0.74090904,0.56733525,0.14214487,0.6361572,0.9069843,0.36747223,0.23037204,0.8510666,0.8511633,0.19393292,0.10752429,0.96066934,0.54136866,-0.13614775,-0.18398386,0.5224246,787.326,809.4872,825.6044,791.75824,343.2967,0.1500244140625,0.2315673828125,0.96697998046875,0.441131591796875,-0.8074951171875,0.059814453125,1,1.0,1.0,1.0,1.0,80.00
2024-12-21 15:11:11.665,0.7690498,0.8932879,0.8746887,0.6844467,0.74090904,0.56733525,0.14214487,0.6361572,0.9069843,0.36747223,0.23037204,0.8510666,0.8511633,0.19393292,0.10752429,0.96066934,0.54136866,-0.13614775,-0.18398386,0.5224246,796.99634,805.05493,823.9927,803.8461,392.05127,0.1500244140625,0.2315673828125,0.96697998046875,0.441131591796875,-0.8074951171875,0.059814453125,1,1.0,1.0,1.0,1.0,80.00
2024-12-21 15:11:11.665,0.7690498,0.8932879,0.8746887,0.6844467,0.74090904,0.56733525,0.14214487,0.6361572,0.9069843,0.36747223,0.23037204,0.8510666,0.8511633,0.19393292,0.10752429,0.96066934,0.54136866,-0.13614775,-0.18398386,0.5224246,812.71063,800.6227,826.0073,803.44324,726.4835,0.1500244140625,0.2315673828125,0.96697998046875,0.441131591796875,-0.8074951171875,0.059814453125,1,1.0,1.0,1.0,1.0,80.00
2024-12-21 15:11:11.665,0.7690498,0.8932879,0.8746887,0.6844467,0.74090904,0.56733525,0.14214487,0.6361572,0.9069843,0.36747223,0.23037204,0.8510666,0.8511633,0.19393292,0.10752429,0.96066934,0.54136866,-0.13614775,-0.18398386,0.5224246,814.3223,804.2491,829.6337,801.4286,747.8388,0.1500244140625,0.2315673828125,0.96697998046875,0.441131591796875,-0.8074951171875,0.059814453125,1,1.0,1.0,1.0,1.0,80.00
2024-12-21 15:11:11.667,0.77711684,0.8932879,0.85724473,0.70137125,0.7381903,0.56733525,0.12310234,0.61837626,0.89334494,0.36747223,0.23666988,0.8467342,0.8636893,0.19393292,0.10031296,0.9515254,0.5504982,-0.13614775,-0.18753517,0.5002144,801.4286,805.4579,827.619,798.20514,520.989,0.1500244140625,0.2315673828125,0.96697998046875,0.441131591796875,-0.8074951171875,0.059814453125,1,1.0,1.0,1.0,1.0,80.00
2024-12-21 15:11:11.669,0.77711684,0.8932879,0.85724473,0.70137125,0.7381903,0.56733525,0.12310234,0.61837626,0.89334494,0.36747223,0.23666988,0.8467342,0.8636893,0.19393292,0.10031296,0.9515254,0.5504982,-0.13614775,-0.18753517,0.5002144,790.9524,800.2198,822.381,796.1905,554.43225,0.1500244140625,0.2315673828125,0.96697998046875,0.441131591796875,-0.8074951171875,0.059814453125,1,1.0,1.0,1.0,1.0,80.00
2024-12-21 15:11:11.671,0.77711684,0.8932879,0.85724473,0.70137125,0.7381903,0.56733525,0.12310234,0.61837626,0.89334494,0.36747223,0.23666988,0.8467342,0.8636893,0.19393292,0.10031296,0.9515254,0.5504982,-0.13614775,-0.18753517,0.5002144,792.1612,795.78754,820.3663,806.6667,1033.9194,0.1500244140625,0.2315673828125,0.96697998046875,0.441131591796875,-0.8074951171875,0.059814453125,1,1.0,1.0,1.0,1.0,80.00
2024-12-21 15:11:11.672,0.77711684,0.8932879,0.85724473,0.70137125,0.7381903,0.56733525,0.12310234,0.61837626,0.89334494,0.36747223,0.23666988,0.8467342,0.8636893,0.19393292,0.10031296,0.9515254,0.5504982,-0.13614775,-0.18753517,0.5002144,799.011,804.2491,820.7692,807.0696,900.14655,0.1500244140625,0.2315673828125,0.96697998046875,0.441131591796875,-0.8074951171875,0.059814453125,1,1.0,1.0,1.0,1.0,80.00
2024-12-21 15:11:11.672,0.77711684,0.8932879,0.85724473,0.70137125,0.7381903,0.56733525,0.12310234,0.61837626,0.89334494,0.36747223,0.23666988,0.8467342,0.8636893,0.19393292,0.10031296,0.9515254,0.5504982,-0.13614775,-0.18753517,0.5002144,805.4579,811.9048,818.7546,799.81683,410.5861,0.1500244140625,0.2315673828125,0.96697998046875,0.441131591796875,-0.8074951171875,0.059814453125,1,1.0,1.0,1.0,1.0,80.00
2024-12-21 15:11:11.710,0.77711684,0.8932879,0.85724473,0.70137125,0.7381903,0.56733525,0.12310234,0.61837626,0.89334494,0.36747223,0.23666988,0.8467342,0.8636893,0.19393292,0.10031296,0.9515254,0.5504982,-0.13614775,-0.18753517,0.5002144,801.4286,805.05493,821.5751,798.60803,636.63007,0.15179443359375,0.23260498046875,0.9599609375,0.76263427734375,-2.848663330078125,-1.3458251953125,1,1.0,1.0,1.0,1.0,80.00
2024-12-21 15:11:11.711,0.77711684,0.8932879,0.85724473,0.70137125,0.7381903,0.56733525,0.12310234,0.61837626,0.89334494,0.36747223,0.23666988,0.8467342,0.8636893,0.19393292,0.10031296,0.9515254,0.5504982,-0.13614775,-0.18753517,0.5002144,797.8022,807.47253,821.1722,792.1612,805.4579,0.15179443359375,0.23260498046875,0.9599609375,0.76263427734375,-2.848663330078125,-1.3458251953125,1,1.0,1.0,1.0,1.0,80.00
2024-12-21 15:11:11.712,0.77711684,0.8932879,0.85724473,0.70137125,0.7381903,0.56733525,0.12310234,0.61837626,0.89334494,0.36747223,0.23666988,0.8467342,0.8636893,0.19393292,0.10031296,0.9515254,0.5504982,-0.13614775,-0.18753517,0.5002144,800.2198,821.978,818.7546,791.75824,639.85345,0.15179443359375,0.23260498046875,0.9599609375,0.76263427734375,-2.848663330078125,-1.3458251953125,1,1.0,1.0,1.0,1.0,80.00
2024-12-21 15:11:11.713,0.77711684,0.8932879,0.85724473,0.70137125,0.7381903,0.56733525,0.12310234,0.61837626,0.89334494,0.36747223,0.23666988,0.8467342,0.8636893,0.19393292,0.10031296,0.9515254,0.5504982,-0.13614775,-0.18753517,0.5002144,815.9341,819.5604,825.2015,805.4579,520.58606,0.15179443359375,0.23260498046875,0.9599609375,0.76263427734375,-2.848663330078125,-1.3458251953125,1,1.0,1.0,1.0,1.0,80.00
2024-12-21 15:11:11.714,0.77711684,0.8932879,0.85724473,0.70137125,0.7381903,0.56733525,0.12310234,0.61837626,0.89334494,0.36747223,0.23666988,0.8467342,0.8636893,0.19393292,0.10031296,0.9515254,0.5504982,-0.13614775,-0.18753517,0.5002144,836.08057,816.337,828.022,820.3663,622.52747,0.15179443359375,0.23260498046875,0.9599609375,0.76263427734375,-2.848663330078125,-1.3458251953125,1,1.0,1.0,1.0,1.0,80.00
2024-12-21 15:11:11.715,0.77711684,0.8932879,0.85724473,0.70137125,0.7381903,0.56733525,0.12310234,0.61837626,0.89334494,0.36747223,0.23666988,0.8467342,0.8636893,0.19393292,0.10031296,0.9515254,0.5504982,-0.13614775,-0.18753517,0.5002144,819.9634,816.7399,825.6044,819.15753,859.45056,0.15179443359375,0.23260498046875,0.9599609375,0.76263427734375,-2.848663330078125,-1.3458251953125,1,1.0,1.0,1.0,1.0,80.00
2024-12-21 15:11:11.715,0.77711684,0.8932879,0.85724473,0.70137125,0.7381903,0.56733525,0.12310234,0.61837626,0.89334494,0.36747223,0.23666988,0.8467342,0.8636893,0.19393292,0.10031296,0.9515254,0.5504982,-0.13614775,-0.18753517,0.5002144,803.8461,808.2784,823.1868,808.2784,753.0769,0.15179443359375,0.23260498046875,0.9599609375,0.76263427734375,-2.848663330078125,-1.3458251953125,1,1.0,1.0,1.0,1.0,80.00
2024-12-21 15:11:11.715,0.77711684,0.8932879,0.85724473,0.70137125,0.7381903,0.56733525,0.12310234,0.61837626,0.89334494,0.36747223,0.23666988,0.8467342,0.8636893,0.19393292,0.10031296,0.9515254,0.5504982,-0.13614775,-0.18753517,0.5002144,805.8608,805.4579,818.7546,797.8022,447.25275,0.15179443359375,0.23260498046875,0.9599609375,0.76263427734375,-2.848663330078125,-1.3458251953125,1,1.0,1.0,1.0,1.0,80.00
2024-12-21 15:11:11.716,0.77711684,0.8932879,0.85724473,0.70137125,0.7381903,0.56733525,0.12310234,0.61837626,0.89334494,0.36747223,0.23666988,0.8467342,0.8636893,0.19393292,0.10031296,0.9515254,0.5504982,-0.13614775,-0.18753517,0.5002144,809.4872,809.0842,818.7546,809.0842,723.2601,0.15179443359375,0.23260498046875,0.9599609375,0.76263427734375,-2.848663330078125,-1.3458251953125,1,1.0,1.0,1.0,1.0,80.00
2024-12-21 15:11:11.716,0.77711684,0.8932879,0.85724473,0.70137125,0.7381903,0.56733525,0.12310234,0.61837626,0.89334494,0.36747223,0.23666988,0.8467342,0.8636893,0.19393292,0.10031296,0.9515254,0.5504982,-0.13614775,-0.18753517,0.5002144,817.1429,814.3223,822.7839,823.5897,1065.348,0.15179443359375,0.23260498046875,0.9599609375,0.76263427734375,-2.848663330078125,-1.3458251953125,1,1.0,1.0,1.0,1.0,80.00
2024-12-21 15:11:11.716,0.77711684,0.8932879,0.85724473,0.70137125,0.7381903,0.56733525,0.12310234,0.61837626,0.89334494,0.36747223,0.23666988,0.8467342,0.8636893,0.19393292,0.10031296,0.9515254,0.5504982,-0.13614775,-0.18753517,0.5002144,816.7399,823.1868,823.5897,819.5604,547.5824,0.15179443359375,0.23260498046875,0.9599609375,0.76263427734375,-2.848663330078125,-1.3458251953125,1,1.0,1.0,1.0,1.0,80.00
2024-12-21 15:11:11.717,0.77711684,0.8932879,0.85724473,0.70137125,0.7381903,0.56733525,0.12310234,0.61837626,0.89334494,0.36747223,0.23666988,0.8467342,0.8636893,0.19393292,0.10031296,0.9515254,0.5504982,-0.13614775,-0.18753517,0.5002144,824.3956,825.2015,825.6044,807.0696,317.10623,0.15179443359375,0.23260498046875,0.9599609375,0.76263427734375,-2.848663330078125,-1.3458251953125,1,1.0,1.0,1.0,1.0,80.00
2024-12-21 15:11:11.754,0.77711684,0.8932879,0.85724473,0.70137125,0.7381903,0.56733525,0.12310234,0.61837626,0.89334494,0.36747223,0.23666988,0.8467342,0.8636893,0.19393292,0.10031296,0.9515254,0.5504982,-0.13614775,-0.18753517,0.5002144,827.2161,828.4249,830.0366,818.3516,463.36996,0.15887451171875,0.22943115234375,0.95404052734375,0.13458251953125,-4.08233642578125,-2.46734619140625,1,1.0,1.0,1.0,1.0,80.00
2024-12-21 15:11:11.754,0.77711684,0.8932879,0.85724473,0.70137125,0.7381903,0.56733525,0.12310234,0.61837626,0.89334494,0.36747223,0.23666988,0.8467342,0.8636893,0.19393292,0.10031296,0.9515254,0.5504982,-0.13614775,-0.18753517,0.5002144,811.50183,824.7985,831.6484,811.0989,421.06226,0.15887451171875,0.22943115234375,0.95404052734375,0.13458251953125,-4.08233642578125,-2.46734619140625,1,1.0,1.0,1.0,1.0,80.00
2024-12-21 15:11:11.755,0.77711684,0.8932879,0.85724473,0.70137125,0.7381903,0.56733525,0.12310234,0.61837626,0.89334494,0.36747223,0.23666988,0.8467342,0.8636893,0.19393292,0.10031296,0.9515254,0.5504982,-0.13614775,-0.18753517,0.5002144,803.8461,821.978,832.8571,801.8315,404.1392,0.15887451171875,0.22943115234375,0.95404052734375,0.13458251953125,-4.08233642578125,-2.46734619140625,1,1.0,1.0,1.0,1.0,80.00
2024-12-21 15:11:11.755,0.77711684,0.8932879,0.85724473,0.70137125,0.7381903,0.56733525,0.12310234,0.61837626,0.89334494,0.36747223,0.23666988,0.8467342,0.8636893,0.19393292,0.10031296,0.9515254,0.5504982,-0.13614775,-0.18753517,0.5002144,799.81683,826.4103,832.4542,817.9487,552.4176,0.15887451171875,0.22943115234375,0.95404052734375,0.13458251953125,-4.08233642578125,-2.46734619140625,1,1.0,1.0,1.0,1.0,80.00
2024-12-21 15:11:11.755,0.77711684,0.8932879,0.85724473,0.70137125,0.7381903,0.56733525,0.12310234,0.61837626,0.89334494,0.36747223,0.23666988,0.8467342,0.8636893,0.19393292,0.10031296,0.9515254,0.5504982,-0.13614775,-0.18753517,0.5002144,805.05493,828.8278,828.4249,808.2784,585.05493,0.15887451171875,0.22943115234375,0.95404052734375,0.13458251953125,-4.08233642578125,-2.46734619140625,1,1.0,1.0,1.0,1.0,80.00
2024-12-21 15:11:11.756,0.77711684,0.8932879,0.85724473,0.70137125,0.7381903,0.56733525,0.12310234,0.61837626,0.89334494,0.36747223,0.23666988,0.8467342,0.8636893,0.19393292,0.10031296,0.9515254,0.5504982,-0.13614775,-0.18753517,0.5002144,810.293,839.707,826.8132,798.60803,564.90845,0.15887451171875,0.22943115234375,0.95404052734375,0.13458251953125,-4.08233642578125,-2.46734619140625,1,1.0,1.0,1.0,1.0,80.00
2024-12-21 15:11:11.756,0.77711684,0.8932879,0.85724473,0.70137125,0.7381903,0.56733525,0.12310234,0.61837626,0.89334494,0.36747223,0.23666988,0.8467342,0.8636893,0.19393292,0.10031296,0.9515254,0.5504982,-0.13614775,-0.18753517,0.5002144,815.12823,852.1978,831.6484,809.4872,573.36993,0.15887451171875,0.22943115234375,0.95404052734375,0.13458251953125,-4.08233642578125,-2.46734619140625,1,1.0,1.0,1.0,1.0,80.00
2024-12-21 15:11:11.756,0.77711684,0.8932879,0.85724473,0.70137125,0.7381903,0.56733525,0.12310234,0.61837626,0.89334494,0.36747223,0.23666988,0.8467342,0.8636893,0.19393292,0.10031296,0.9515254,0.5504982,-0.13614775,-0.18753517,0.5002144,823.9927,850.58606,832.8571,811.9048,755.4945,0.15887451171875,0.22943115234375,0.95404052734375,0.13458251953125,-4.08233642578125,-2.46734619140625,1,1.0,1.0,1.0,1.0,80.00
2024-12-21 15:11:11.756,0.77711684,0.8932879,0.85724473,0.70137125,0.7381903,0.56733525,0.12310234,0.61837626,0.89334494,0.36747223,0.23666988,0.8467342,0.8636893,0.19393292,0.10031296,0.9515254,0.5504982,-0.13614775,-0.18753517,0.5002144,819.9634,845.7509,830.84247,807.47253,1043.5897,0.15887451171875,0.22943115234375,0.95404052734375,0.13458251953125,-4.08233642578125,-2.46734619140625,1,1.0,1.0,1.0,1.0,80.00
2024-12-21 15:11:11.757,0.7794432,0.8932879,0.835489,0.73249793,0.7354038,0.56733525,0.10681477,0.59727615,0.88227713,0.36747223,0.23666988,0.85781574,0.87649924,0.19393292,0.09146201,0.9386646,0.5749826,-0.13614775,-0.18745029,0.48244664,801.02563,852.6007,828.8278,799.41394,819.5604,0.15887451171875,0.22943115234375,0.95404052734375,0.13458251953125,-4.08233642578125,-2.46734619140625,1,1.0,1.0,1.0,1.0,80.00
2024-12-21 15:11:11.759,0.7794432,0.8932879,0.835489,0.73249793,0.7354038,0.56733525,0.10681477,0.59727615,0.88227713,0.36747223,0.23666988,0.85781574,0.87649924,0.19393292,0.09146201,0.9386646,0.5749826,-0.13614775,-0.18745029,0.48244664,809.89014,859.85345,831.2454,804.2491,415.0183,0.15887451171875,0.22943115234375,0.95404052734375,0.13458251953125,-4.08233642578125,-2.46734619140625,1,1.0,1.0,1.0,1.0,80.00
2024-12-21 15:11:11.759,0.7794432,0.8932879,0.835489,0.73249793,0.7354038,0.56733525,0.10681477,0.59727615,0.88227713,0.36747223,0.23666988,0.85781574,0.87649924,0.19393292,0.09146201,0.9386646,0.5749826,-0.13614775,-0.18745029,0.48244664,815.5311,855.42126,830.4396,813.1135,617.28937,0.15887451171875,0.22943115234375,0.95404052734375,0.13458251953125,-4.08233642578125,-2.46734619140625,1,1.0,1.0,1.0,1.0,80.00
2024-12-21 15:11:11.797,0.7794432,0.8932879,0.835489,0.73249793,0.7354038,0.56733525,0.10681477,0.59727615,0.88227713,0.36747223,0.23666988,0.85781574,0.87649924,0.19393292,0.09146201,0.9386646,0.5749826,-0.13614775,-0.18745029,0.48244664,807.0696,841.7216,824.7985,811.9048,776.8498,0.15887451171875,0.22943115234375,0.95404052734375,0.13458251953125,-4.08233642578125,-2.46734619140625,1,1.0,1.0,1.0,1.0,80.00
2024-12-21 15:11:11.798,0.7794432,0.8932879,0.835489,0.73249793,0.7354038,0.56733525,0.10681477,0.59727615,0.88227713,0.36747223,0.23666988,0.85781574,0.87649924,0.19393292,0.09146201,0.9386646,0.5749826,-0.13614775,-0.18745029,0.48244664,814.3223,840.9158,825.2015,810.696,489.56042,0.15887451171875,0.22943115234375,0.95404052734375,0.13458251953125,-4.08233642578125,-2.46734619140625,1,1.0,1.0,1.0,1.0,80.00
2024-12-21 15:11:11.799,0.7794432,0.8932879,0.835489,0.73249793,0.7354038,0.56733525,0.10681477,0.59727615,0.88227713,0.36747223,0.23666988,0.85781574,0.87649924,0.19393292,0.09146201,0.9386646,0.5749826,-0.13614775,-0.18745029,0.48244664,813.91943,845.7509,825.6044,805.8608,323.95605,0.15887451171875,0.22943115234375,0.95404052734375,0.13458251953125,-4.08233642578125,-2.46734619140625,1,1.0,1.0,1.0,1.0,80.00
2024-12-21 15:11:11.799,0.7794432,0.8932879,0.835489,0.73249793,0.7354038,0.56733525,0.10681477,0.59727615,0.88227713,0.36747223,0.23666988,0.85781574,0.87649924,0.19393292,0.09146201,0.9386646,0.5749826,-0.13614775,-0.18745029,0.48244664,811.50183,843.73627,821.978,799.81683,635.82416,0.15887451171875,0.22943115234375,0.95404052734375,0.13458251953125,-4.08233642578125,-2.46734619140625,1,1.0,1.0,1.0,1.0,80.00
2024-12-21 15:11:11.799,0.7794432,0.8932879,0.835489,0.73249793,0.7354038,0.56733525,0.10681477,0.59727615,0.88227713,0.36747223,0.23666988,0.85781574,0.87649924,0.19393292,0.09146201,0.9386646,0.5749826,-0.13614775,-0.18745029,0.48244664,829.6337,847.76556,828.8278,809.0842,832.0513,0.15887451171875,0.22943115234375,0.95404052734375,0.13458251953125,-4.08233642578125,-2.46734619140625,1,1.0,1.0,1.0,1.0,80.00
2024-12-21 15:11:11.800,0.7794432,0.8932879,0.835489,0.73249793,0.7354038,0.56733525,0.10681477,0.59727615,0.88227713,0.36747223,0.23666988,0.85781574,0.87649924,0.19393292,0.09146201,0.9386646,0.5749826,-0.13614775,-0.18745029,0.48244664,842.9304,854.61536,829.6337,817.5458,571.75824,0.15887451171875,0.22943115234375,0.95404052734375,0.13458251953125,-4.08233642578125,-2.46734619140625,1,1.0,1.0,1.0,1.0,80.00
2024-12-21 15:11:11.800,0.7794432,0.8932879,0.835489,0.73249793,0.7354038,0.56733525,0.10681477,0.59727615,0.88227713,0.36747223,0.23666988,0.85781574,0.87649924,0.19393292,0.09146201,0.9386646,0.5749826,-0.13614775,-0.18745029,0.48244664,826.4103,857.03296,822.7839,813.91943,506.48352,0.15887451171875,0.22943115234375,0.95404052734375,0.13458251953125,-4.08233642578125,-2.46734619140625,1,1.0,1.0,1.0,1.0,80.00
2024-12-21 15:11:11.800,0.7794432,0.8932879,0.835489,0.73249793,0.7354038,0.56733525,0.10681477,0.59727615,0.88227713,0.36747223,0.23666988,0.85781574,0.87649924,0.19393292,0.09146201,0.9386646,0.5749826,-0.13614775,-0.18745029,0.48244664,817.1429,850.989,825.6044,806.6667,827.2161,0.15887451171875,0.22943115234375,0.95404052734375,0.13458251953125,-4.08233642578125,-2.46734619140625,1,1.0,1.0,1.0,1.0,80.00
2024-12-21 15:11:11.801,0.7794432,0.8932879,0.835489,0.73249793,0.7354038,0.56733525,0.10681477,0.59727615,0.88227713,0.36747223,0.23666988,0.85781574,0.87649924,0.19393292,0.09146201,0.9386646,0.5749826,-0.13614775,-0.18745029,0.48244664,814.7253,842.9304,823.5897,800.6227,1038.7546,0.15887451171875,0.22943115234375,0.95404052734375,0.13458251953125,-4.08233642578125,-2.46734619140625,1,1.0,1.0,1.0,1.0,80.00
2024-12-21 15:11:11.801,0.7794432,0.8932879,0.835489,0.73249793,0.7354038,0.56733525,0.10681477,0.59727615,0.88227713,0.36747223,0.23666988,0.85781574,0.87649924,0.19393292,0.09146201,0.9386646,0.5749826,-0.13614775,-0.18745029,0.48244664,817.5458,847.3626,826.0073,806.26373,514.94507,0.15887451171875,0.22943115234375,0.95404052734375,0.13458251953125,-4.08233642578125,-2.46734619140625,1,1.0,1.0,1.0,1.0,80.00
2024-12-21 15:11:11.801,0.7794432,0.8932879,0.835489,0.73249793,0.7354038,0.56733525,0.10681477,0.59727615,0.88227713,0.36747223,0.23666988,0.85781574,0.87649924,0.19393292,0.09146201,0.9386646,0.5749826,-0.13614775,-0.18745029,0.48244664,826.4103,840.9158,829.2308,817.5458,400.91574,0.15887451171875,0.22943115234375,0.95404052734375,0.13458251953125,-4.08233642578125,-2.46734619140625,1,1.0,1.0,1.0,1.0,80.00
2024-12-21 15:11:11.801,0.7794432,0.8932879,0.835489,0.73249793,0.7354038,0.56733525,0.10681477,0.59727615,0.88227713,0.36747223,0.23666988,0.85781574,0.87649924,0.19393292,0.09146201,0.9386646,0.5749826,-0.13614775,-0.18745029,0.48244664,825.2015,837.28937,825.6044,819.15753,551.2088,0.15887451171875,0.22943115234375,0.95404052734375,0.13458251953125,-4.08233642578125,-2.46734619140625,1,1.0,1.0,1.0,1.0,80.00
2024-12-21 15:11:11.829,0.7794432,0.8932879,0.835489,0.73249793,0.7354038,0.56733525,0.10681477,0.59727615,0.88227713,0.36747223,0.23666988,0.85781574,0.87649924,0.19393292,0.09146201,0.9386646,0.5749826,-0.13614775,-0.18745029,0.48244664,815.5311,840.5128,823.9927,808.2784,457.72894,0.1661376953125,0.23101806640625,0.954345703125,0.770111083984375,-3.9178466796875,-2.55706787109375,1,1.0,1.0,1.0,1.0,80.00
2024-12-21 15:11:11.829,0.7794432,0.8932879,0.835489,0.73249793,0.7354038,0.56733525,0.10681477,0.59727615,0.88227713,0.36747223,0.23666988,0.85781574,0.87649924,0.19393292,0.09146201,0.9386646,0.5749826,-0.13614775,-0.18745029,0.48244664,804.2491,846.1539,820.3663,791.75824,372.71063,0.1661376953125,0.23101806640625,0.954345703125,0.770111083984375,-3.9178466796875,-2.55706787109375,1,1.0,1.0,1.0,1.0,80.00
2024-12-21 15:11:11.830,0.7794432,0.8932879,0.835489,0.73249793,0.7354038,0.56733525,0.10681477,0.59727615,0.88227713,0.36747223,0.23666988,0.85781574,0.87649924,0.19393292,0.09146201,0.9386646,0.5749826,-0.13614775,-0.18745029,0.48244664,817.1429,853.4066,818.7546,796.1905,430.32968,0.1661376953125,0.23101806640625,0.954345703125,0.770111083984375,-3.9178466796875,-2.55706787109375,1,1.0,1.0,1.0,1.0,80.00
2024-12-21 15:11:11.830,0.7794432,0.8932879,0.835489,0.73249793,0.7354038,0.56733525,0.10681477,0.59727615,0.88227713,0.36747223,0.23666988,0.85781574,0.87649924,0.19393292,0.09146201,0.9386646,0.5749826,-0.13614775,-0.18745029,0.48244664,832.8571,852.6007,817.5458,801.8315,525.0183,0.1661376953125,0.23101806640625,0.954345703125,0.770111083984375,-3.9178466796875,-2.55706787109375,1,1.0,1.0,1.0,1.0,80.00
2024-12-21 15:11:11.831,0.7794432,0.8932879,0.835489,0.73249793,0.7354038,0.56733525,0.10681477,0.59727615,0.88227713,0.36747223,0.23666988,0.85781574,0.87649924,0.19393292,0.09146201,0.9386646,0.5749826,-0.13614775,-0.18745029,0.48244664,832.4542,850.989,811.50183,800.2198,534.68866,0.1661376953125,0.23101806640625,0.954345703125,0.770111083984375,-3.9178466796875,-2.55706787109375,1,1.0,1.0,1.0,1.0,80.00
2024-12-21 15:11:11.831,0.7794432,0.8932879,0.835489,0.73249793,0.7354038,0.56733525,0.10681477,0.59727615,0.88227713,0.36747223,0.23666988,0.85781574,0.87649924,0.19393292,0.09146201,0.9386646,0.5749826,-0.13614775,-0.18745029,0.48244664,826.4103,845.34796,814.7253,801.4286,684.9817,0.1661376953125,0.23101806640625,0.954345703125,0.770111083984375,-3.9178466796875,-2.55706787109375,1,1.0,1.0,1.0,1.0,80.00
2024-12-21 15:11:11.831,0.7794432,0.8932879,0.835489,0.73249793,0.7354038,0.56733525,0.10681477,0.59727615,0.88227713,0.36747223,0.23666988,0.85781574,0.87649924,0.19393292,0.09146201,0.9386646,0.5749826,-0.13614775,-0.18745029,0.48244664,813.1135,844.94507,817.9487,798.20514,647.1062,0.1661376953125,0.23101806640625,0.954345703125,0.770111083984375,-3.9178466796875,-2.55706787109375,1,1.0,1.0,1.0,1.0,80.00
2024-12-21 15:11:11.832,0.7794432,0.8932879,0.835489,0.73249793,0.7354038,0.56733525,0.10681477,0.59727615,0.88227713,0.36747223,0.23666988,0.85781574,0.87649924,0.19393292,0.09146201,0.9386646,0.5749826,-0.13614775,-0.18745029,0.48244664,803.8461,844.1392,819.5604,803.44324,971.06226,0.1661376953125,0.23101806640625,0.954345703125,0.770111083984375,-3.9178466796875,-2.55706787109375,1,1.0,1.0,1.0,1.0,80.00
2024-12-21 15:11:11.832,0.7794432,0.8932879,0.835489,0.73249793,0.7354038,0.56733525,0.10681477,0.59727615,0.88227713,0.36747223,0.23666988,0.85781574,0.87649924,0.19393292,0.09146201,0.9386646,0.5749826,-0.13614775,-0.18745029,0.48244664,810.696,856.63007,820.7692,811.9048,1172.9304,0.1661376953125,0.23101806640625,0.954345703125,0.770111083984375,-3.9178466796875,-2.55706787109375,1,1.0,1.0,1.0,1.0,80.00
2024-12-21 15:11:11.832,0.7794432,0.8932879,0.835489,0.73249793,0.7354038,0.56733525,0.10681477,0.59727615,0.88227713,0.36747223,0.23666988,0.85781574,0.87649924,0.19393292,0.09146201,0.9386646,0.5749826,-0.13614775,-0.18745029,0.48244664,807.8755,865.89746,819.5604,812.3077,547.98535,0.1661376953125,0.23101806640625,0.954345703125,0.770111083984375,-3.9178466796875,-2.55706787109375,1,1.0,1.0,1.0,1.0,80.00
2024-12-21 15:11:11.833,0.7794432,0.8932879,0.835489,0.73249793,0.7354038,0.56733525,0.10681477,0.59727615,0.88227713,0.36747223,0.23666988,0.85781574,0.87649924,0.19393292,0.09146201,0.9386646,0.5749826,-0.13614775,-0.18745029,0.48244664,798.20514,859.45056,819.9634,805.05493,451.68497,0.1661376953125,0.23101806640625,0.954345703125,0.770111083984375,-3.9178466796875,-2.55706787109375,1,1.0,1.0,1.0,1.0,80.00
2024-12-21 15:11:11.833,0.7783394,0.8932879,0.8088588,0.7581844,0.73553103,0.56733525,0.08778435,0.57850176,0.87666684,0.36747223,0.16297272,0.85579866,0.88404506,0.19393292,0.07172946,0.91971564,0.6019451,-0.13614775,-0.22029366,0.46897727,807.0696,861.8681,816.337,795.38464,616.8865,0.1661376953125,0.23101806640625,0.954345703125,0.770111083984375,-3.9178466796875,-2.55706787109375,1,1.0,1.0,1.0,1.0,80.00
2024-12-21 15:11:11.890,0.7783394,0.8932879,0.8088588,0.7581844,0.73553103,0.56733525,0.08778435,0.57850176,0.87666684,0.36747223,0.16297272,0.85579866,0.88404506,0.19393292,0.07172946,0.91971564,0.6019451,-0.13614775,-0.22029366,0.46897727,818.3516,871.9414,818.7546,804.2491,466.1905,0.17877197265625,0.22955322265625,0.95294189453125,1.98883056640625,-3.9178466796875,-0.545806884765625,1,1.0,1.0,1.0,1.0,80.00
2024-12-21 15:11:11.890,0.7783394,0.8932879,0.8088588,0.7581844,0.73553103,0.56733525,0.08778435,0.57850176,0.87666684,0.36747223,0.16297272,0.85579866,0.88404506,0.19393292,0.07172946,0.91971564,0.6019451,-0.13614775,-0.22029366,0.46897727,805.4579,869.5238,822.381,811.0989,365.4579,0.17877197265625,0.22955322265625,0.95294189453125,1.98883056640625,-3.9178466796875,-0.545806884765625,1,1.0,1.0,1.0,1.0,80.00
2024-12-21 15:11:11.891,0.7783394,0.8932879,0.8088588,0.7581844,0.73553103,0.56733525,0.08778435,0.57850176,0.87666684,0.36747223,0.16297272,0.85579866,0.88404506,0.19393292,0.07172946,0.91971564,0.6019451,-0.13614775,-0.22029366,0.46897727,800.2198,856.2271,815.9341,808.68134,644.2857,0.17877197265625,0.22955322265625,0.95294189453125,1.98883056640625,-3.9178466796875,-0.545806884765625,1,1.0,1.0,1.0,1.0,80.00
2024-12-21 15:11:11.891,0.7783394,0.8932879,0.8088588,0.7581844,0.73553103,0.56733525,0.08778435,0.57850176,0.87666684,0.36747223,0.16297272,0.85579866,0.88404506,0.19393292,0.07172946,0.91971564,0.6019451,-0.13614775,-0.22029366,0.46897727,801.02563,854.61536,813.91943,811.0989,767.5824,0.17877197265625,0.22955322265625,0.95294189453125,1.98883056640625,-3.9178466796875,-0.545806884765625,1,1.0,1.0,1.0,1.0,80.00
2024-12-21 15:11:11.891,0.7783394,0.8932879,0.8088588,0.7581844,0.73553103,0.56733525,0.08778435,0.57850176,0.87666684,0.36747223,0.16297272,0.85579866,0.88404506,0.19393292,0.07172946,0.91971564,0.6019451,-0.13614775,-0.22029366,0.46897727,800.6227,856.2271,817.1429,802.6374,322.74725,0.17877197265625,0.22955322265625,0.95294189453125,1.98883056640625,-3.9178466796875,-0.545806884765625,1,1.0,1.0,1.0,1.0,80.00
2024-12-21 15:11:11.892,0.7783394,0.8932879,0.8088588,0.7581844,0.73553103,0.56733525,0.08778435,0.57850176,0.87666684,0.36747223,0.16297272,0.85579866,0.88404506,0.19393292,0.07172946,0.91971564,0.6019451,-0.13614775,-0.22029366,0.46897727,804.2491,852.1978,819.5604,795.78754,367.47253,0.17877197265625,0.22955322265625,0.95294189453125,1.98883056640625,-3.9178466796875,-0.545806884765625,1,1.0,1.0,1.0,1.0,80.00
2024-12-21 15:11:11.892,0.7783394,0.8932879,0.8088588,0.7581844,0.73553103,0.56733525,0.08778435,0.57850176,0.87666684,0.36747223,0.16297272,0.85579866,0.88404506,0.19393292,0.07172946,0.91971564,0.6019451,-0.13614775,-0.22029366,0.46897727,817.5458,846.55676,815.9341,801.4286,1036.7399,0.17877197265625,0.22955322265625,0.95294189453125,1.98883056640625,-3.9178466796875,-0.545806884765625,1,1.0,1.0,1.0,1.0,80.00
2024-12-21 15:11:11.892,0.7783394,0.8932879,0.8088588,0.7581844,0.73553103,0.56733525,0.08778435,0.57850176,0.87666684,0.36747223,0.16297272,0.85579866,0.88404506,0.19393292,0.07172946,0.91971564,0.6019451,-0.13614775,-0.22029366,0.46897727,827.2161,846.9597,815.5311,795.38464,1168.0952,0.17877197265625,0.22955322265625,0.95294189453125,1.98883056640625,-3.9178466796875,-0.545806884765625,1,1.0,1.0,1.0,1.0,80.00
2024-12-21 15:11:11.892,0.7783394,0.8932879,0.8088588,0.7581844,0.73553103,0.56733525,0.08778435,0.57850176,0.87666684,0.36747223,0.16297272,0.85579866,0.88404506,0.19393292,0.07172946,0.91971564,0.6019451,-0.13614775,-0.22029366,0.46897727,813.1135,851.39197,819.9634,781.28204,636.63007,0.17877197265625,0.22955322265625,0.95294189453125,1.98883056640625,-3.9178466796875,-0.545806884765625,1,1.0,1.0,1.0,1.0,80.00
2024-12-21 15:11:11.893,0.7783394,0.8932879,0.8088588,0.7581844,0.73553103,0.56733525,0.08778435,0.57850176,0.87666684,0.36747223,0.16297272,0.85579866,0.88404506,0.19393292,0.07172946,0.91971564,0.6019451,-0.13614775,-0.22029366,0.46897727,798.20514,850.58606,817.5458,782.49084,691.8315,0.17877197265625,0.22955322265625,0.95294189453125,1.98883056640625,-3.9178466796875,-0.545806884765625,1,1.0,1.0,1.0,1.0,80.00
2024-12-21 15:11:11.893,0.7783394,0.8932879,0.8088588,0.7581844,0.73553103,0.56733525,0.08778435,0.57850176,0.87666684,0.36747223,0.16297272,0.85579866,0.88404506,0.19393292,0.07172946,0.91971564,0.6019451,-0.13614775,-0.22029366,0.46897727,797.3993,844.94507,816.337,791.75824,757.50916,0.17877197265625,0.22955322265625,0.95294189453125,1.98883056640625,-3.9178466796875,-0.545806884765625,1,1.0,1.0,1.0,1.0,80.00
2024-12-21 15:11:11.893,0.7783394,0.8932879,0.8088588,0.7581844,0.73553103,0.56733525,0.08778435,0.57850176,0.87666684,0.36747223,0.16297272,0.85579866,0.88404506,0.19393292,0.07172946,0.91971564,0.6019451,-0.13614775,-0.22029366,0.46897727,802.6374,834.87177,818.7546,790.54944,792.96704,0.17877197265625,0.22955322265625,0.95294189453125,1.98883056640625,-3.9178466796875,-0.545806884765625,1,1.0,1.0,1.0,1.0,80.00
2024-12-21 15:11:11.924,0.7783394,0.8932879,0.8088588,0.7581844,0.73553103,0.56733525,0.08778435,0.57850176,0.87666684,0.36747223,0.16297272,0.85579866,0.88404506,0.19393292,0.07172946,0.91971564,0.6019451,-0.13614775,-0.22029366,0.46897727,823.1868,833.663,819.5604,801.8315,985.16486,0.1824951171875,0.23565673828125,0.95263671875,2.175750732421875,-4.38140869140625,1.51031494140625,1,1.0,1.0,1.0,1.0,80.00
2024-12-21 15:11:11.924,0.7783394,0.8932879,0.8088588,0.7581844,0.73553103,0.56733525,0.08778435,0.57850176,0.87666684,0.36747223,0.16297272,0.85579866,0.88404506,0.19393292,0.07172946,0.91971564,0.6019451,-0.13614775,-0.22029366,0.46897727,827.2161,828.022,820.7692,804.65204,785.31134,0.1824951171875,0.23565673828125,0.95263671875,2.175750732421875,-4.38140869140625,1.51031494140625,1,1.0,1.0,1.0,1.0,80.00
2024-12-21 15:11:11.925,0.7783394,0.8932879,0.8088588,0.7581844,0.73553103,0.56733525,0.08778435,0.57850176,0.87666684,0.36747223,0.16297272,0.85579866,0.88404506,0.19393292,0.07172946,0.91971564,0.6019451,-0.13614775,-0.22029366,0.46897727,797.8022,830.84247,818.3516,800.6227,613.663,0.1824951171875,0.23565673828125,0.95263671875,2.175750732421875,-4.38140869140625,1.51031494140625,1,1.0,1.0,1.0,1.0,80.00
2024-12-21 15:11:11.925,0.7783394,0.8932879,0.8088588,0.7581844,0.73553103,0.56733525,0.08778435,0.57850176,0.87666684,0.36747223,0.16297272,0.85579866,0.88404506,0.19393292,0.07172946,0.91971564,0.6019451,-0.13614775,-0.22029366,0.46897727,794.57874,839.707,815.5311,799.81683,536.7033,0.1824951171875,0.23565673828125,0.95263671875,2.175750732421875,-4.38140869140625,1.51031494140625,1,1.0,1.0,1.0,1.0,80.00
2024-12-21 15:11:11.925,0.7783394,0.8932879,0.8088588,0.7581844,0.73553103,0.56733525,0.08778435,0.57850176,0.87666684,0.36747223,0.16297272,0.85579866,0.88404506,0.19393292,0.07172946,0.91971564,0.6019451,-0.13614775,-0.22029366,0.46897727,809.0842,840.5128,818.7546,811.0989,437.17947,0.1824951171875,0.23565673828125,0.95263671875,2.175750732421875,-4.38140869140625,1.51031494140625,1,1.0,1.0,1.0,1.0,80.00
2024-12-21 15:11:11.926,0.7783394,0.8932879,0.8088588,0.7581844,0.73553103,0.56733525,0.08778435,0.57850176,0.87666684,0.36747223,0.16297272,0.85579866,0.88404506,0.19393292,0.07172946,0.91971564,0.6019451,-0.13614775,-0.22029366,0.46897727,823.9927,838.49817,821.1722,824.7985,594.7253,0.1824951171875,0.23565673828125,0.95263671875,2.175750732421875,-4.38140869140625,1.51031494140625,1,1.0,1.0,1.0,1.0,80.00
2024-12-21 15:11:11.926,0.7783394,0.8932879,0.8088588,0.7581844,0.73553103,0.56733525,0.08778435,0.57850176,0.87666684,0.36747223,0.16297272,0.85579866,0.88404506,0.19393292,0.07172946,0.91971564,0.6019451,-0.13614775,-0.22029366,0.46897727,831.6484,834.4689,820.3663,821.1722,884.43225,0.1824951171875,0.23565673828125,0.95263671875,2.175750732421875,-4.38140869140625,1.51031494140625,1,1.0,1.0,1.0,1.0,80.00
2024-12-21 15:11:11.926,0.7783394,0.8932879,0.8088588,0.7581844,0.73553103,0.56733525,0.08778435,0.57850176,0.87666684,0.36747223,0.16297272,0.85579866,0.88404506,0.19393292,0.07172946,0.91971564,0.6019451,-0.13614775,-0.22029366,0.46897727,816.337,836.8865,819.5604,811.0989,643.0769,0.1824951171875,0.23565673828125,0.95263671875,2.175750732421875,-4.38140869140625,1.51031494140625,1,1.0,1.0,1.0,1.0,80.00
2024-12-21 15:11:11.927,0.7783394,0.8932879,0.8088588,0.7581844,0.73553103,0.56733525,0.08778435,0.57850176,0.87666684,0.36747223,0.16297272,0.85579866,0.88404506,0.19393292,0.07172946,0.91971564,0.6019451,-0.13614775,-0.22029366,0.46897727,804.65204,836.4835,822.7839,800.6227,426.7033,0.1824951171875,0.23565673828125,0.95263671875,2.175750732421875,-4.38140869140625,1.51031494140625,1,1.0,1.0,1.0,1.0,80.00
2024-12-21 15:11:11.927,0.7783394,0.8932879,0.8088588,0.7581844,0.73553103,0.56733525,0.08778435,0.57850176,0.87666684,0.36747223,0.16297272,0.85579866,0.88404506,0.19393292,0.07172946,0.91971564,0.6019451,-0.13614775,-0.22029366,0.46897727,803.8461,834.0659,823.1868,801.02563,563.2967,0.1824951171875,0.23565673828125,0.95263671875,2.175750732421875,-4.38140869140625,1.51031494140625,1,1.0,1.0,1.0,1.0,80.00
2024-12-21 15:11:11.927,0.7783394,0.8932879,0.8088588,0.7581844,0.73553103,0.56733525,0.08778435,0.57850176,0.87666684,0.36747223,0.16297272,0.85579866,0.88404506,0.19393292,0.07172946,0.91971564,0.6019451,-0.13614775,-0.22029366,0.46897727,819.15753,838.0952,822.7839,806.6667,533.47986,0.1824951171875,0.23565673828125,0.95263671875,2.175750732421875,-4.38140869140625,1.51031494140625,1,1.0,1.0,1.0,1.0,80.00
2024-12-21 15:11:11.927,0.7783394,0.8932879,0.8088588,0.7581844,0.73553103,0.56733525,0.08778435,0.57850176,0.87666684,0.36747223,0.16297272,0.85579866,0.88404506,0.19393292,0.07172946,0.91971564,0.6019451,-0.13614775,-0.22029366,0.46897727,823.5897,835.6777,821.5751,802.23444,417.03296,0.1824951171875,0.23565673828125,0.95263671875,2.175750732421875,-4.38140869140625,1.51031494140625,1,1.0,1.0,1.0,1.0,80.00
2024-12-21 15:11:11.984,0.7783394,0.8932879,0.8088588,0.7581844,0.73553103,0.56733525,0.08778435,0.57850176,0.87666684,0.36747223,0.16297272,0.85579866,0.88404506,0.19393292,0.07172946,0.91971564,0.6019451,-0.13614775,-0.22029366,0.46897727,805.4579,827.619,820.7692,793.36993,414.21246,0.187255859375,0.24566650390625,0.95794677734375,2.325286865234375,-4.239349365234375,2.041168212890625,1,1.0,1.0,1.0,1.0,80.00
2024-12-21 15:11:11.984,0.7724259,0.8932879,0.7858017,0.7619928,0.7407808,0.56733525,0.08565428,0.5695934,0.86867374,0.36747223,0.1976631,0.84615964,0.88374025,0.19393292,0.0614766,0.8923081,0.62286127,-0.13614775,-0.25036418,0.45886862,801.8315,815.5311,819.5604,802.23444,626.1539,0.187255859375,0.24566650390625,0.95794677734375,2.325286865234375,-4.239349365234375,2.041168212890625,1,1.0,1.0,1.0,1.0,80.00
2024-12-21 15:11:11.987,0.7724259,0.8932879,0.7858017,0.7619928,0.7407808,0.56733525,0.08565428,0.5695934,0.86867374,0.36747223,0.1976631,0.84615964,0.88374025,0.19393292,0.0614766,0.8923081,0.62286127,-0.13614775,-0.25036418,0.45886862,804.2491,808.2784,819.15753,813.91943,745.82416,0.187255859375,0.24566650390625,0.95794677734375,2.325286865234375,-4.239349365234375,2.041168212890625,1,1.0,1.0,1.0,1.0,80.00
2024-12-21 15:11:11.987,0.7724259,0.8932879,0.7858017,0.7619928,0.7407808,0.56733525,0.08565428,0.5695934,0.86867374,0.36747223,0.1976631,0.84615964,0.88374025,0.19393292,0.0614766,0.8923081,0.62286127,-0.13614775,-0.25036418,0.45886862,806.26373,807.0696,817.5458,807.0696,435.56778,0.187255859375,0.24566650390625,0.95794677734375,2.325286865234375,-4.239349365234375,2.041168212890625,1,1.0,1.0,1.0,1.0,80.00
2024-12-21 15:11:11.988,0.7724259,0.8932879,0.7858017,0.7619928,0.7407808,0.56733525,0.08565428,0.5695934,0.86867374,0.36747223,0.1976631,0.84615964,0.88374025,0.19393292,0.0614766,0.8923081,0.62286127,-0.13614775,-0.25036418,0.45886862,808.68134,805.8608,817.9487,807.0696,154.72528,0.187255859375,0.24566650390625,0.95794677734375,2.325286865234375,-4.239349365234375,2.041168212890625,1,1.0,1.0,1.0,1.0,80.00
2024-12-21 15:11:11.988,0.7724259,0.8932879,0.7858017,0.7619928,0.7407808,0.56733525,0.08565428,0.5695934,0.86867374,0.36747223,0.1976631,0.84615964,0.88374025,0.19393292,0.0614766,0.8923081,0.62286127,-0.13614775,-0.25036418,0.45886862,804.2491,801.4286,817.9487,805.4579,520.989,0.187255859375,0.24566650390625,0.95794677734375,2.325286865234375,-4.239349365234375,2.041168212890625,1,1.0,1.0,1.0,1.0,80.00
2024-12-21 15:11:11.989,0.7724259,0.8932879,0.7858017,0.7619928,0.7407808,0.56733525,0.08565428,0.5695934,0.86867374,0.36747223,0.1976631,0.84615964,0.88374025,0.19393292,0.0614766,0.8923081,0.62286127,-0.13614775,-0.25036418,0.45886862,813.5165,796.99634,815.9341,789.7436,693.8461,0.187255859375,0.24566650390625,0.95794677734375,2.325286865234375,-4.239349365234375,2.041168212890625,1,1.0,1.0,1.0,1.0,80.00
2024-12-21 15:11:11.989,0.7724259,0.8932879,0.7858017,0.7619928,0.7407808,0.56733525,0.08565428,0.5695934,0.86867374,0.36747223,0.1976631,0.84615964,0.88374025,0.19393292,0.0614766,0.8923081,0.62286127,-0.13614775,-0.25036418,0.45886862,810.293,807.8755,821.1722,799.41394,554.83514,0.187255859375,0.24566650390625,0.95794677734375,2.325286865234375,-4.239349365234375,2.041168212890625,1,1.0,1.0,1.0,1.0,80.00
2024-12-21 15:11:11.989,0.7724259,0.8932879,0.7858017,0.7619928,0.7407808,0.56733525,0.08565428,0.5695934,0.86867374,0.36747223,0.1976631,0.84615964,0.88374025,0.19393292,0.0614766,0.8923081,0.62286127,-0.13614775,-0.25036418,0.45886862,803.0403,808.2784,818.7546,812.71063,494.79852,0.187255859375,0.24566650390625,0.95794677734375,2.325286865234375,-4.239349365234375,2.041168212890625,1,1.0,1.0,1.0,1.0,80.00
2024-12-21 15:11:11.990,0.7724259,0.8932879,0.7858017,0.7619928,0.7407808,0.56733525,0.08565428,0.5695934,0.86867374,0.36747223,0.1976631,0.84615964,0.88374025,0.19393292,0.0614766,0.8923081,0.62286127,-0.13614775,-0.25036418,0.45886862,801.02563,803.0403,816.337,807.8755,677.326,0.187255859375,0.24566650390625,0.95794677734375,2.325286865234375,-4.239349365234375,2.041168212890625,1,1.0,1.0,1.0,1.0,80.00
2024-12-21 15:11:11.990,0.7724259,0.8932879,0.7858017,0.7619928,0.7407808,0.56733525,0.08565428,0.5695934,0.86867374,0.36747223,0.1976631,0.84615964,0.88374025,0.19393292,0.0614766,0.8923081,0.62286127,-0.13614775,-0.25036418,0.45886862,796.99634,816.337,816.7399,797.3993,766.3736,0.187255859375,0.24566650390625,0.95794677734375,2.325286865234375,-4.239349365234375,2.041168212890625,1,1.0,1.0,1.0,1.0,80.00
2024-12-21 15:11:11.991,0.7724259,0.8932879,0.7858017,0.7619928,0.7407808,0.56733525,0.08565428,0.5695934,0.86867374,0.36747223,0.1976631,0.84615964,0.88374025,0.19393292,0.0614766,0.8923081,0.62286127,-0.13614775,-0.25036418,0.45886862,787.326,821.5751,814.7253,791.75824,489.56042,0.187255859375,0.24566650390625,0.95794677734375,2.325286865234375,-4.239349365234375,2.041168212890625,1,1.0,1.0,1.0,1.0,80.00
2024-12-21 15:11:12.056,0.7724259,0.8932879,0.7858017,0.7619928,0.7407808,0.56733525,0.08565428,0.5695934,0.86867374,0.36747223,0.1976631,0.84615964,0.88374025,0.19393292,0.0614766,0.8923081,0.62286127,-0.13614775,-0.25036418,0.45886862,801.8315,813.5165,814.3223,806.26373,598.7546,0.187255859375,0.24566650390625,0.95794677734375,2.325286865234375,-4.239349365234375,2.041168212890625,1,1.0,1.0,1.0,1.0,80.00
2024-12-21 15:11:12.056,0.7724259,0.8932879,0.7858017,0.7619928,0.7407808,0.56733525,0.08565428,0.5695934,0.86867374,0.36747223,0.1976631,0.84615964,0.88374025,0.19393292,0.0614766,0.8923081,0.62286127,-0.13614775,-0.25036418,0.45886862,830.84247,813.91943,815.12823,812.71063,656.3736,0.187255859375,0.24566650390625,0.95794677734375,2.325286865234375,-4.239349365234375,2.041168212890625,1,1.0,1.0,1.0,1.0,80.00
2024-12-21 15:11:12.057,0.7724259,0.8932879,0.7858017,0.7619928,0.7407808,0.56733525,0.08565428,0.5695934,0.86867374,0.36747223,0.1976631,0.84615964,0.88374025,0.19393292,0.0614766,0.8923081,0.62286127,-0.13614775,-0.25036418,0.45886862,826.0073,813.91943,814.3223,806.6667,501.64835,0.187255859375,0.24566650390625,0.95794677734375,2.325286865234375,-4.239349365234375,2.041168212890625,1,1.0,1.0,1.0,1.0,80.00
2024-12-21 15:11:12.057,0.7724259,0.8932879,0.7858017,0.7619928,0.7407808,0.56733525,0.08565428,0.5695934,0.86867374,0.36747223,0.1976631,0.84615964,0.88374025,0.19393292,0.0614766,0.8923081,0.62286127,-0.13614775,-0.25036418,0.45886862,806.26373,811.0989,817.1429,801.8315,610.0366,0.187255859375,0.24566650390625,0.95794677734375,2.325286865234375,-4.239349365234375,2.041168212890625,1,1.0,1.0,1.0,1.0,80.00
2024-12-21 15:11:12.057,0.7724259,0.8932879,0.7858017,0.7619928,0.7407808,0.56733525,0.08565428,0.5695934,0.86867374,0.36747223,0.1976631,0.84615964,0.88374025,0.19393292,0.0614766,0.8923081,0.62286127,-0.13614775,-0.25036418,0.45886862,800.2198,803.44324,819.15753,799.41394,538.315,0.187255859375,0.24566650390625,0.95794677734375,2.325286865234375,-4.239349365234375,2.041168212890625,1,1.0,1.0,1.0,1.0,80.00
2024-12-21 15:11:12.058,0.7724259,0.8932879,0.7858017,0.7619928,0.7407808,0.56733525,0.08565428,0.5695934,0.86867374,0.36747223,0.1976631,0.84615964,0.88374025,0.19393292,0.0614766,0.8923081,0.62286127,-0.13614775,-0.25036418,0.45886862,818.7546,800.2198,821.978,818.3516,811.9048,0.187255859375,0.24566650390625,0.95794677734375,2.325286865234375,-4.239349365234375,2.041168212890625,1,1.0,1.0,1.0,1.0,80.00
2024-12-21 15:11:12.058,0.7724259,0.8932879,0.7858017,0.7619928,0.7407808,0.56733525,0.08565428,0.5695934,0.86867374,0.36747223,0.1976631,0.84615964,0.88374025,0.19393292,0.0614766,0.8923081,0.62286127,-0.13614775,-0.25036418,0.45886862,838.0952,810.696,818.7546,832.8571,1052.4542,0.187255859375,0.24566650390625,0.95794677734375,2.325286865234375,-4.239349365234375,2.041168212890625,1,1.0,1.0,1.0,1.0,80.00
2024-12-21 15:11:12.059,0.7724259,0.8932879,0.7858017,0.7619928,0.7407808,0.56733525,0.08565428,0.5695934,0.86867374,0.36747223,0.1976631,0.84615964,0.88374025,0.19393292,0.0614766,0.8923081,0.62286127,-0.13614775,-0.25036418,0.45886862,844.1392,813.1135,814.7253,817.5458,480.29303,0.187255859375,0.24566650390625,0.95794677734375,2.325286865234375,-4.239349365234375,2.041168212890625,1,1.0,1.0,1.0,1.0,80.00
2024-12-21 15:11:12.059,0.7724259,0.8932879,0.7858017,0.7619928,0.7407808,0.56733525,0.08565428,0.5695934,0.86867374,0.36747223,0.1976631,0.84615964,0.88374025,0.19393292,0.0614766,0.8923081,0.62286127,-0.13614775,-0.25036418,0.45886862,814.7253,799.41394,820.7692,793.36993,285.27472,0.187255859375,0.24566650390625,0.95794677734375,2.325286865234375,-4.239349365234375,2.041168212890625,1,1.0,1.0,1.0,1.0,80.00
2024-12-21 15:11:12.059,0.7724259,0.8932879,0.7858017,0.7619928,0.7407808,0.56733525,0.08565428,0.5695934,0.86867374,0.36747223,0.1976631,0.84615964,0.88374025,0.19393292,0.0614766,0.8923081,0.62286127,-0.13614775,-0.25036418,0.45886862,794.17584,796.1905,821.5751,782.8938,449.2674,0.187255859375,0.24566650390625,0.95794677734375,2.325286865234375,-4.239349365234375,2.041168212890625,1,1.0,1.0,1.0,1.0,80.00
2024-12-21 15:11:12.060,0.7724259,0.8932879,0.7858017,0.7619928,0.7407808,0.56733525,0.08565428,0.5695934,0.86867374,0.36747223,0.1976631,0.84615964,0.88374025,0.19393292,0.0614766,0.8923081,0.62286127,-0.13614775,-0.25036418,0.45886862,809.0842,797.3993,821.1722,795.78754,438.38828,0.187255859375,0.24566650390625,0.95794677734375,2.325286865234375,-4.239349365234375,2.041168212890625,1,1.0,1.0,1.0,1.0,80.00
2024-12-21 15:11:12.060,0.7724259,0.8932879,0.7858017,0.7619928,0.7407808,0.56733525,0.08565428,0.5695934,0.86867374,0.36747223,0.1976631,0.84615964,0.88374025,0.19393292,0.0614766,0.8923081,0.62286127,-0.13614775,-0.25036418,0.45886862,829.2308,788.93774,825.2015,804.65204,439.59708,0.187255859375,0.24566650390625,0.95794677734375,2.325286865234375,-4.239349365234375,2.041168212890625,1,1.0,1.0,1.0,1.0,80.00
2024-12-21 15:11:12.087,0.7724259,0.8932879,0.7858017,0.7619928,0.7407808,0.56733525,0.08565428,0.5695934,0.86867374,0.36747223,0.1976631,0.84615964,0.88374025,0.19393292,0.0614766,0.8923081,0.62286127,-0.13614775,-0.25036418,0.45886862,836.4835,782.0879,822.381,803.8461,619.304,0.17578125,0.24212646484375,0.9520263671875,0.710296630859375,-2.5421142578125,1.98883056640625,1,1.0,1.0,1.0,1.0,80.00
2024-12-21 15:11:12.087,0.7724259,0.8932879,0.7858017,0.7619928,0.7407808,0.56733525,0.08565428,0.5695934,0.86867374,0.36747223,0.1976631,0.84615964,0.88374025,0.19393292,0.0614766,0.8923081,0.62286127,-0.13614775,-0.25036418,0.45886862,804.65204,782.8938,813.91943,801.02563,738.97437,0.17578125,0.24212646484375,0.9520263671875,0.710296630859375,-2.5421142578125,1.98883056640625,1,1.0,1.0,1.0,1.0,80.00
2024-12-21 15:11:12.088,0.7724259,0.8932879,0.7858017,0.7619928,0.7407808,0.56733525,0.08565428,0.5695934,0.86867374,0.36747223,0.1976631,0.84615964,0.88374025,0.19393292,0.0614766,0.8923081,0.62286127,-0.13614775,-0.25036418,0.45886862,784.5055,784.10254,816.7399,802.23444,611.2454,0.17578125,0.24212646484375,0.9520263671875,0.710296630859375,-2.5421142578125,1.98883056640625,1,1.0,1.0,1.0,1.0,80.00
2024-12-21 15:11:12.088,0.76777905,0.8932879,0.7640726,0.7503586,0.7483475,0.56733525,0.09465077,0.5699754,0.86472124,0.36747223,0.2201576,0.8452205,0.8767882,0.19393292,0.0538237,0.85691106,0.63756096,-0.13614775,-0.27742705,0.45107713,795.38464,777.25275,821.1722,807.0696,431.53845,0.17578125,0.24212646484375,0.9520263671875,0.710296630859375,-2.5421142578125,1.98883056640625,1,1.0,1.0,1.0,1.0,80.00
2024-12-21 15:11:12.089,0.76777905,0.8932879,0.7640726,0.7503586,0.7483475,0.56733525,0.09465077,0.5699754,0.86472124,0.36747223,0.2201576,0.8452205,0.8767882,0.19393292,0.0538237,0.85691106,0.63756096,-0.13614775,-0.27742705,0.45107713,807.0696,772.01465,818.7546,799.41394,512.9304,0.17578125,0.24212646484375,0.9520263671875,0.710296630859375,-2.5421142578125,1.98883056640625,1,1.0,1.0,1.0,1.0,80.00
2024-12-21 15:11:12.090,0.76777905,0.8932879,0.7640726,0.7503586,0.7483475,0.56733525,0.09465077,0.5699754,0.86472124,0.36747223,0.2201576,0.8452205,0.8767882,0.19393292,0.0538237,0.85691106,0.63756096,-0.13614775,-0.27742705,0.45107713,824.7985,774.0293,818.7546,799.41394,664.0293,0.17578125,0.24212646484375,0.9520263671875,0.710296630859375,-2.5421142578125,1.98883056640625,1,1.0,1.0,1.0,1.0,80.00
2024-12-21 15:11:12.090,0.76777905,0.8932879,0.7640726,0.7503586,0.7483475,0.56733525,0.09465077,0.5699754,0.86472124,0.36747223,0.2201576,0.8452205,0.8767882,0.19393292,0.0538237,0.85691106,0.63756096,-0.13614775,-0.27742705,0.45107713,818.3516,779.2674,821.1722,804.65204,514.1392,0.17578125,0.24212646484375,0.9520263671875,0.710296630859375,-2.5421142578125,1.98883056640625,1,1.0,1.0,1.0,1.0,80.00
2024-12-21 15:11:12.090,0.76777905,0.8932879,0.7640726,0.7503586,0.7483475,0.56733525,0.09465077,0.5699754,0.86472124,0.36747223,0.2201576,0.8452205,0.8767882,0.19393292,0.0538237,0.85691106,0.63756096,-0.13614775,-0.27742705,0.45107713,800.2198,773.6264,815.12823,808.2784,424.68866,0.17578125,0.24212646484375,0.9520263671875,0.710296630859375,-2.5421142578125,1.98883056640625,1,1.0,1.0,1.0,1.0,80.00
2024-12-21 15:11:12.090,0.76777905,0.8932879,0.7640726,0.7503586,0.7483475,0.56733525,0.09465077,0.5699754,0.86472124,0.36747223,0.2201576,0.8452205,0.8767882,0.19393292,0.0538237,0.85691106,0.63756096,-0.13614775,-0.27742705,0.45107713,811.0989,765.9707,811.50183,815.9341,485.53113,0.17578125,0.24212646484375,0.9520263671875,0.710296630859375,-2.5421142578125,1.98883056640625,1,1.0,1.0,1.0,1.0,80.00
2024-12-21 15:11:12.091,0.76777905,0.8932879,0.7640726,0.7503586,0.7483475,0.56733525,0.09465077,0.5699754,0.86472124,0.36747223,0.2201576,0.8452205,0.8767882,0.19393292,0.0538237,0.85691106,0.63756096,-0.13614775,-0.27742705,0.45107713,824.3956,765.56775,812.3077,809.4872,536.7033,0.17578125,0.24212646484375,0.9520263671875,0.710296630859375,-2.5421142578125,1.98883056640625,1,1.0,1.0,1.0,1.0,80.00
2024-12-21 15:11:12.091,0.76777905,0.8932879,0.7640726,0.7503586,0.7483475,0.56733525,0.09465077,0.5699754,0.86472124,0.36747223,0.2201576,0.8452205,0.8767882,0.19393292,0.0538237,0.85691106,0.63756096,-0.13614775,-0.27742705,0.45107713,818.3516,762.3443,812.71063,807.47253,533.8828,0.17578125,0.24212646484375,0.9520263671875,0.710296630859375,-2.5421142578125,1.98883056640625,1,1.0,1.0,1.0,1.0,80.00
2024-12-21 15:11:12.091,0.76777905,0.8932879,0.7640726,0.7503586,0.7483475,0.56733525,0.09465077,0.5699754,0.86472124,0.36747223,0.2201576,0.8452205,0.8767882,0.19393292,0.0538237,0.85691106,0.63756096,-0.13614775,-0.27742705,0.45107713,804.2491,759.12085,816.7399,813.91943,392.85715,0.17578125,0.24212646484375,0.9520263671875,0.710296630859375,-2.5421142578125,1.98883056640625,1,1.0,1.0,1.0,1.0,80.00
2024-12-21 15:11:12.121,0.76777905,0.8932879,0.7640726,0.7503586,0.7483475,0.56733525,0.09465077,0.5699754,0.86472124,0.36747223,0.2201576,0.8452205,0.8767882,0.19393292,0.0538237,0.85691106,0.63756096,-0.13614775,-0.27742705,0.45107713,789.34064,755.09155,814.3223,813.1135,695.4579,0.1756591796875,0.247802734375,0.95135498046875,0.067291259765625,-2.400054931640625,0.889739990234375,1,1.0,1.0,1.0,1.0,80.00
2024-12-21 15:11:12.121,0.76777905,0.8932879,0.7640726,0.7503586,0.7483475,0.56733525,0.09465077,0.5699754,0.86472124,0.36747223,0.2201576,0.8452205,0.8767882,0.19393292,0.0538237,0.85691106,0.63756096,-0.13614775,-0.27742705,0.45107713,791.75824,755.09155,811.0989,809.89014,1059.3041,0.1756591796875,0.247802734375,0.95135498046875,0.067291259765625,-2.400054931640625,0.889739990234375,1,1.0,1.0,1.0,1.0,80.00
2024-12-21 15:11:12.122,0.76777905,0.8932879,0.7640726,0.7503586,0.7483475,0.56733525,0.09465077,0.5699754,0.86472124,0.36747223,0.2201576,0.8452205,0.8767882,0.19393292,0.0538237,0.85691106,0.63756096,-0.13614775,-0.27742705,0.45107713,807.47253,766.3736,809.4872,810.293,683.36993,0.1756591796875,0.247802734375,0.95135498046875,0.067291259765625,-2.400054931640625,0.889739990234375,1,1.0,1.0,1.0,1.0,80.00
2024-12-21 15:11:12.122,0.76777905,0.8932879,0.7640726,0.7503586,0.7483475,0.56733525,0.09465077,0.5699754,0.86472124,0.36747223,0.2201576,0.8452205,0.8767882,0.19393292,0.0538237,0.85691106,0.63756096,-0.13614775,-0.27742705,0.45107713,816.337,773.22345,814.3223,816.7399,509.70697,0.1756591796875,0.247802734375,0.95135498046875,0.067291259765625,-2.400054931640625,0.889739990234375,1,1.0,1.0,1.0,1.0,80.00
2024-12-21 15:11:12.122,0.76777905,0.8932879,0.7640726,0.7503586,0.7483475,0.56733525,0.09465077,0.5699754,0.86472124,0.36747223,0.2201576,0.8452205,0.8767882,0.19393292,0.0538237,0.85691106,0.63756096,-0.13614775,-0.27742705,0.45107713,815.12823,772.01465,818.3516,812.3077,609.6337,0.1756591796875,0.247802734375,0.95135498046875,0.067291259765625,-2.400054931640625,0.889739990234375,1,1.0,1.0,1.0,1.0,80.00
2024-12-21 15:11:12.122,0.76777905,0.8932879,0.7640726,0.7503586,0.7483475,0.56733525,0.09465077,0.5699754,0.86472124,0.36747223,0.2201576,0.8452205,0.8767882,0.19393292,0.0538237,0.85691106,0.63756096,-0.13614775,-0.27742705,0.45107713,807.0696,772.8205,816.7399,806.26373,633.8095,0.1756591796875,0.247802734375,0.95135498046875,0.067291259765625,-2.400054931640625,0.889739990234375,1,1.0,1.0,1.0,1.0,80.00
2024-12-21 15:11:12.123,0.76777905,0.8932879,0.7640726,0.7503586,0.7483475,0.56733525,0.09465077,0.5699754,0.86472124,0.36747223,0.2201576,0.8452205,0.8767882,0.19393292,0.0538237,0.85691106,0.63756096,-0.13614775,-0.27742705,0.45107713,805.05493,776.8498,815.5311,815.9341,637.8388,0.1756591796875,0.247802734375,0.95135498046875,0.067291259765625,-2.400054931640625,0.889739990234375,1,1.0,1.0,1.0,1.0,80.00
2024-12-21 15:11:12.123,0.76777905,0.8932879,0.7640726,0.7503586,0.7483475,0.56733525,0.09465077,0.5699754,0.86472124,0.36747223,0.2201576,0.8452205,0.8767882,0.19393292,0.0538237,0.85691106,0.63756096,-0.13614775,-0.27742705,0.45107713,810.696,778.86444,813.1135,817.5458,667.6557,0.1756591796875,0.247802734375,0.95135498046875,0.067291259765625,-2.400054931640625,0.889739990234375,1,1.0,1.0,1.0,1.0,80.00
2024-12-21 15:11:12.123,0.76777905,0.8932879,0.7640726,0.7503586,0.7483475,0.56733525,0.09465077,0.5699754,0.86472124,0.36747223,0.2201576,0.8452205,0.8767882,0.19393292,0.0538237,0.85691106,0.63756096,-0.13614775,-0.27742705,0.45107713,818.7546,775.2381,811.0989,821.5751,950.9158,0.1756591796875,0.247802734375,0.95135498046875,0.067291259765625,-2.400054931640625,0.889739990234375,1,1.0,1.0,1.0,1.0,80.00
2024-12-21 15:11:12.123,0.76777905,0.8932879,0.7640726,0.7503586,0.7483475,0.56733525,0.09465077,0.5699754,0.86472124,0.36747223,0.2201576,0.8452205,0.8767882,0.19393292,0.0538237,0.85691106,0.63756096,-0.13614775,-0.27742705,0.45107713,829.6337,782.49084,809.0842,814.3223,977.9121,0.1756591796875,0.247802734375,0.95135498046875,0.067291259765625,-2.400054931640625,0.889739990234375,1,1.0,1.0,1.0,1.0,80.00
2024-12-21 15:11:12.123,0.76777905,0.8932879,0.7640726,0.7503586,0.7483475,0.56733525,0.09465077,0.5699754,0.86472124,0.36747223,0.2201576,0.8452205,0.8767882,0.19393292,0.0538237,0.85691106,0.63756096,-0.13614775,-0.27742705,0.45107713,821.5751,794.57874,808.68134,799.011,503.663,0.1756591796875,0.247802734375,0.95135498046875,0.067291259765625,-2.400054931640625,0.889739990234375,1,1.0,1.0,1.0,1.0,80.00
2024-12-21 15:11:12.124,0.76777905,0.8932879,0.7640726,0.7503586,0.7483475,0.56733525,0.09465077,0.5699754,0.86472124,0.36747223,0.2201576,0.8452205,0.8767882,0.19393292,0.0538237,0.85691106,0.63756096,-0.13614775,-0.27742705,0.45107713,806.6667,797.3993,808.2784,800.2198,661.6117,0.1756591796875,0.247802734375,0.95135498046875,0.067291259765625,-2.400054931640625,0.889739990234375,1,1.0,1.0,1.0,1.0,80.00
2024-12-21 15:11:12.158,0.76777905,0.8932879,0.7640726,0.7503586,0.7483475,0.56733525,0.09465077,0.5699754,0.86472124,0.36747223,0.2201576,0.8452205,0.8767882,0.19393292,0.0538237,0.85691106,0.63756096,-0.13614775,-0.27742705,0.45107713,818.3516,799.011,809.0842,808.2784,1000.87915,0.1827392578125,0.23809814453125,0.9564208984375,-1.7047119140625,-3.24493408203125,-0.8673095703125,1,1.0,1.0,1.0,1.0,80.00
2024-12-21 15:11:12.159,0.76777905,0.8932879,0.7640726,0.7503586,0.7483475,0.56733525,0.09465077,0.5699754,0.86472124,0.36747223,0.2201576,0.8452205,0.8767882,0.19393292,0.0538237,0.85691106,0.63756096,-0.13614775,-0.27742705,0.45107713,825.6044,809.0842,809.89014,817.9487,499.23077,0.1827392578125,0.23809814453125,0.9564208984375,-1.7047119140625,-3.24493408203125,-0.8673095703125,1,1.0,1.0,1.0,1.0,80.00
2024-12-21 15:11:12.159,0.76777905,0.8932879,0.7640726,0.7503586,0.7483475,0.56733525,0.09465077,0.5699754,0.86472124,0.36747223,0.2201576,0.8452205,0.8767882,0.19393292,0.0538237,0.85691106,0.63756096,-0.13614775,-0.27742705,0.45107713,815.5311,818.7546,811.50183,816.7399,183.33333,0.1827392578125,0.23809814453125,0.9564208984375,-1.7047119140625,-3.24493408203125,-0.8673095703125,1,1.0,1.0,1.0,1.0,80.00
2024-12-21 15:11:12.160,0.76777905,0.8932879,0.7640726,0.7503586,0.7483475,0.56733525,0.09465077,0.5699754,0.86472124,0.36747223,0.2201576,0.8452205,0.8767882,0.19393292,0.0538237,0.85691106,0.63756096,-0.13614775,-0.27742705,0.45107713,805.05493,809.89014,814.7253,809.4872,325.56778,0.1827392578125,0.23809814453125,0.9564208984375,-1.7047119140625,-3.24493408203125,-0.8673095703125,1,1.0,1.0,1.0,1.0,80.00
2024-12-21 15:11:12.160,0.76777905,0.8932879,0.7640726,0.7503586,0.7483475,0.56733525,0.09465077,0.5699754,0.86472124,0.36747223,0.2201576,0.8452205,0.8767882,0.19393292,0.0538237,0.85691106,0.63756096,-0.13614775,-0.27742705,0.45107713,807.47253,807.47253,812.3077,813.5165,319.12088,0.1827392578125,0.23809814453125,0.9564208984375,-1.7047119140625,-3.24493408203125,-0.8673095703125,1,1.0,1.0,1.0,1.0,80.00
2024-12-21 15:11:12.160,0.7604517,0.8932879,0.74805695,0.73084295,0.74835336,0.56733525,0.11301017,0.56568724,0.8777826,0.36747223,0.22361842,0.83652633,0.86513144,0.19393292,0.04263728,0.81699497,0.6501185,-0.13614775,-0.29611197,0.4424051,812.3077,811.9048,807.8755,816.337,305.0183,0.1827392578125,0.23809814453125,0.9564208984375,-1.7047119140625,-3.24493408203125,-0.8673095703125,1,1.0,1.0,1.0,1.0,80.00
2024-12-21 15:11:12.162,0.7604517,0.8932879,0.74805695,0.73084295,0.74835336,0.56733525,0.11301017,0.56568724,0.8777826,0.36747223,0.22361842,0.83652633,0.86513144,0.19393292,0.04263728,0.81699497,0.6501185,-0.13614775,-0.29611197,0.4424051,813.1135,810.696,809.0842,801.8315,311.06226,0.1827392578125,0.23809814453125,0.9564208984375,-1.7047119140625,-3.24493408203125,-0.8673095703125,1,1.0,1.0,1.0,1.0,80.00
2024-12-21 15:11:12.162,0.7604517,0.8932879,0.74805695,0.73084295,0.74835336,0.56733525,0.11301017,0.56568724,0.8777826,0.36747223,0.22361842,0.83652633,0.86513144,0.19393292,0.04263728,0.81699497,0.6501185,-0.13614775,-0.29611197,0.4424051,816.7399,799.011,810.696,812.3077,566.1172,0.1827392578125,0.23809814453125,0.9564208984375,-1.7047119140625,-3.24493408203125,-0.8673095703125,1,1.0,1.0,1.0,1.0,80.00
2024-12-21 15:11:12.162,0.7604517,0.8932879,0.74805695,0.73084295,0.74835336,0.56733525,0.11301017,0.56568724,0.8777826,0.36747223,0.22361842,0.83652633,0.86513144,0.19393292,0.04263728,0.81699497,0.6501185,-0.13614775,-0.29611197,0.4424051,831.2454,795.38464,812.71063,833.663,810.696,0.1827392578125,0.23809814453125,0.9564208984375,-1.7047119140625,-3.24493408203125,-0.8673095703125,1,1.0,1.0,1.0,1.0,80.00
2024-12-21 15:11:12.164,0.7604517,0.8932879,0.74805695,0.73084295,0.74835336,0.56733525,0.11301017,0.56568724,0.8777826,0.36747223,0.22361842,0.83652633,0.86513144,0.19393292,0.04263728,0.81699497,0.6501185,-0.13614775,-0.29611197,0.4424051,824.7985,812.3077,813.1135,816.7399,456.52014,0.1827392578125,0.23809814453125,0.9564208984375,-1.7047119140625,-3.24493408203125,-0.8673095703125,1,1.0,1.0,1.0,1.0,80.00
2024-12-21 15:11:12.164,0.7604517,0.8932879,0.74805695,0.73084295,0.74835336,0.56733525,0.11301017,0.56568724,0.8777826,0.36747223,0.22361842,0.83652633,0.86513144,0.19393292,0.04263728,0.81699497,0.6501185,-0.13614775,-0.29611197,0.4424051,797.3993,815.12823,809.0842,796.99634,364.24908,0.1827392578125,0.23809814453125,0.9564208984375,-1.7047119140625,-3.24493408203125,-0.8673095703125,1,1.0,1.0,1.0,1.0,80.00
2024-12-21 15:11:12.164,0.7604517,0.8932879,0.74805695,0.73084295,0.74835336,0.56733525,0.11301017,0.56568724,0.8777826,0.36747223,0.22361842,0.83652633,0.86513144,0.19393292,0.04263728,0.81699497,0.6501185,-0.13614775,-0.29611197,0.4424051,799.41394,811.9048,807.0696,806.26373,543.1502,0.1827392578125,0.23809814453125,0.9564208984375,-1.7047119140625,-3.24493408203125,-0.8673095703125,1,1.0,1.0,1.0,1.0,80.00
2024-12-21 15:11:12.225,0.7604517,0.8932879,0.74805695,0.73084295,0.74835336,0.56733525,0.11301017,0.56568724,0.8777826,0.36747223,0.22361842,0.83652633,0.86513144,0.19393292,0.04263728,0.81699497,0.6501185,-0.13614775,-0.29611197,0.4424051,812.71063,810.293,800.6227,826.8132,504.46887,0.18255615234375,0.23486328125,0.9512939453125,-1.203765869140625,-2.669219970703125,-1.428070068359375,1,1.0,1.0,1.0,1.0,80.00
2024-12-21 15:11:12.226,0.7604517,0.8932879,0.74805695,0.73084295,0.74835336,0.56733525,0.11301017,0.56568724,0.8777826,0.36747223,0.22361842,0.83652633,0.86513144,0.19393292,0.04263728,0.81699497,0.6501185,-0.13614775,-0.29611197,0.4424051,815.9341,811.0989,791.3553,817.5458,332.41757,0.18255615234375,0.23486328125,0.9512939453125,-1.203765869140625,-2.669219970703125,-1.428070068359375,1,1.0,1.0,1.0,1.0,80.00
2024-12-21 15:11:12.226,0.7604517,0.8932879,0.74805695,0.73084295,0.74835336,0.56733525,0.11301017,0.56568724,0.8777826,0.36747223,0.22361842,0.83652633,0.86513144,0.19393292,0.04263728,0.81699497,0.6501185,-0.13614775,-0.29611197,0.4424051,811.9048,813.91943,782.49084,807.0696,316.7033,0.18255615234375,0.23486328125,0.9512939453125,-1.203765869140625,-2.669219970703125,-1.428070068359375,1,1.0,1.0,1.0,1.0,80.00
2024-12-21 15:11:12.227,0.7604517,0.8932879,0.74805695,0.73084295,0.74835336,0.56733525,0.11301017,0.56568724,0.8777826,0.36747223,0.22361842,0.83652633,0.86513144,0.19393292,0.04263728,0.81699497,0.6501185,-0.13614775,-0.29611197,0.4424051,814.3223,807.8755,780.07324,815.9341,433.95605,0.18255615234375,0.23486328125,0.9512939453125,-1.203765869140625,-2.669219970703125,-1.428070068359375,1,1.0,1.0,1.0,1.0,80.00
2024-12-21 15:11:12.227,0.7604517,0.8932879,0.74805695,0.73084295,0.74835336,0.56733525,0.11301017,0.56568724,0.8777826,0.36747223,0.22361842,0.83652633,0.86513144,0.19393292,0.04263728,0.81699497,0.6501185,-0.13614775,-0.29611197,0.4424051,825.2015,806.6667,781.28204,828.022,535.4945,0.18255615234375,0.23486328125,0.9512939453125,-1.203765869140625,-2.669219970703125,-1.428070068359375,1,1.0,1.0,1.0,1.0,80.00
2024-12-21 15:11:12.228,0.7604517,0.8932879,0.74805695,0.73084295,0.74835336,0.56733525,0.11301017,0.56568724,0.8777826,0.36747223,0.22361842,0.83652633,0.86513144,0.19393292,0.04263728,0.81699497,0.6501185,-0.13614775,-0.29611197,0.4424051,818.7546,802.23444,778.86444,838.0952,661.2088,0.18255615234375,0.23486328125,0.9512939453125,-1.203765869140625,-2.669219970703125,-1.428070068359375,1,1.0,1.0,1.0,1.0,80.00
2024-12-21 15:11:12.228,0.7604517,0.8932879,0.74805695,0.73084295,0.74835336,0.56733525,0.11301017,0.56568724,0.8777826,0.36747223,0.22361842,0.83652633,0.86513144,0.19393292,0.04263728,0.81699497,0.6501185,-0.13614775,-0.29611197,0.4424051,799.011,796.5934,782.0879,829.6337,534.68866,0.18255615234375,0.23486328125,0.9512939453125,-1.203765869140625,-2.669219970703125,-1.428070068359375,1,1.0,1.0,1.0,1.0,80.00
2024-12-21 15:11:12.229,0.7604517,0.8932879,0.74805695,0.73084295,0.74835336,0.56733525,0.11301017,0.56568724,0.8777826,0.36747223,0.22361842,0.83652633,0.86513144,0.19393292,0.04263728,0.81699497,0.6501185,-0.13614775,-0.29611197,0.4424051,797.3993,796.5934,788.93774,828.022,846.55676,0.18255615234375,0.23486328125,0.9512939453125,-1.203765869140625,-2.669219970703125,-1.428070068359375,1,1.0,1.0,1.0,1.0,80.00
2024-12-21 15:11:12.229,0.7604517,0.8932879,0.74805695,0.73084295,0.74835336,0.56733525,0.11301017,0.56568724,0.8777826,0.36747223,0.22361842,0.83652633,0.86513144,0.19393292,0.04263728,0.81699497,0.6501185,-0.13614775,-0.29611197,0.4424051,822.381,794.17584,789.34064,827.2161,823.9927,0.18255615234375,0.23486328125,0.9512939453125,-1.203765869140625,-2.669219970703125,-1.428070068359375,1,1.0,1.0,1.0,1.0,80.00
2024-12-21 15:11:12.230,0.7604517,0.8932879,0.74805695,0.73084295,0.74835336,0.56733525,0.11301017,0.56568724,0.8777826,0.36747223,0.22361842,0.83652633,0.86513144,0.19393292,0.04263728,0.81699497,0.6501185,-0.13614775,-0.29611197,0.4424051,830.4396,809.4872,790.9524,815.5311,335.2381,0.18255615234375,0.23486328125,0.9512939453125,-1.203765869140625,-2.669219970703125,-1.428070068359375,1,1.0,1.0,1.0,1.0,80.00
2024-12-21 15:11:12.230,0.7604517,0.8932879,0.74805695,0.73084295,0.74835336,0.56733525,0.11301017,0.56568724,0.8777826,0.36747223,0.22361842,0.83652633,0.86513144,0.19393292,0.04263728,0.81699497,0.6501185,-0.13614775,-0.29611197,0.4424051,819.9634,819.5604,790.9524,809.4872,466.1905,0.18255615234375,0.23486328125,0.9512939453125,-1.203765869140625,-2.669219970703125,-1.428070068359375,1,1.0,1.0,1.0,1.0,80.00
2024-12-21 15:11:12.231,0.7604517,0.8932879,0.74805695,0.73084295,0.74835336,0.56733525,0.11301017,0.56568724,0.8777826,0.36747223,0.22361842,0.83652633,0.86513144,0.19393292,0.04263728,0.81699497,0.6501185,-0.13614775,-0.29611197,0.4424051,815.12823,816.337,786.9231,809.0842,718.4249,0.18255615234375,0.23486328125,0.9512939453125,-1.203765869140625,-2.669219970703125,-1.428070068359375,1,1.0,1.0,1.0,1.0,80.00
2024-12-21 15:11:12.257,0.7604517,0.8932879,0.74805695,0.73084295,0.74835336,0.56733525,0.11301017,0.56568724,0.8777826,0.36747223,0.22361842,0.83652633,0.86513144,0.19393292,0.04263728,0.81699497,0.6501185,-0.13614775,-0.29611197,0.4424051,811.0989,813.1135,790.14655,792.1612,466.99634,0.18255615234375,0.23486328125,0.9512939453125,-1.203765869140625,-2.669219970703125,-1.428070068359375,1,1.0,1.0,1.0,1.0,80.00
2024-12-21 15:11:12.257,0.7604517,0.8932879,0.74805695,0.73084295,0.74835336,0.56733525,0.11301017,0.56568724,0.8777826,0.36747223,0.22361842,0.83652633,0.86513144,0.19393292,0.04263728,0.81699497,0.6501185,-0.13614775,-0.29611197,0.4424051,820.3663,819.5604,791.3553,801.02563,178.09525,0.18255615234375,0.23486328125,0.9512939453125,-1.203765869140625,-2.669219970703125,-1.428070068359375,1,1.0,1.0,1.0,1.0,80.00
2024-12-21 15:11:12.257,0.7604517,0.8932879,0.74805695,0.73084295,0.74835336,0.56733525,0.11301017,0.56568724,0.8777826,0.36747223,0.22361842,0.83652633,0.86513144,0.19393292,0.04263728,0.81699497,0.6501185,-0.13614775,-0.29611197,0.4424051,819.9634,818.7546,793.36993,820.3663,517.3626,0.18255615234375,0.23486328125,0.9512939453125,-1.203765869140625,-2.669219970703125,-1.428070068359375,1,1.0,1.0,1.0,1.0,80.00
2024-12-21 15:11:12.258,0.7604517,0.8932879,0.74805695,0.73084295,0.74835336,0.56733525,0.11301017,0.56568724,0.8777826,0.36747223,0.22361842,0.83652633,0.86513144,0.19393292,0.04263728,0.81699497,0.6501185,-0.13614775,-0.29611197,0.4424051,817.1429,816.337,799.011,813.91943,739.3773,0.18255615234375,0.23486328125,0.9512939453125,-1.203765869140625,-2.669219970703125,-1.428070068359375,1,1.0,1.0,1.0,1.0,80.00
2024-12-21 15:11:12.258,0.7604517,0.8932879,0.74805695,0.73084295,0.74835336,0.56733525,0.11301017,0.56568724,0.8777826,0.36747223,0.22361842,0.83652633,0.86513144,0.19393292,0.04263728,0.81699497,0.6501185,-0.13614775,-0.29611197,0.4424051,815.5311,819.5604,800.2198,804.65204,500.03662,0.18255615234375,0.23486328125,0.9512939453125,-1.203765869140625,-2.669219970703125,-1.428070068359375,1,1.0,1.0,1.0,1.0,80.00
2024-12-21 15:11:12.259,0.7604517,0.8932879,0.74805695,0.73084295,0.74835336,0.56733525,0.11301017,0.56568724,0.8777826,0.36747223,0.22361842,0.83652633,0.86513144,0.19393292,0.04263728,0.81699497,0.6501185,-0.13614775,-0.29611197,0.4424051,806.26373,812.3077,800.2198,803.8461,390.8425,0.18255615234375,0.23486328125,0.9512939453125,-1.203765869140625,-2.669219970703125,-1.428070068359375,1,1.0,1.0,1.0,1.0,80.00
2024-12-21 15:11:12.259,0.7604517,0.8932879,0.74805695,0.73084295,0.74835336,0.56733525,0.11301017,0.56568724,0.8777826,0.36747223,0.22361842,0.83652633,0.86513144,0.19393292,0.04263728,0.81699497,0.6501185,-0.13614775,-0.29611197,0.4424051,820.7692,819.15753,801.8315,820.3663,788.5348,0.18255615234375,0.23486328125,0.9512939453125,-1.203765869140625,-2.669219970703125,-1.428070068359375,1,1.0,1.0,1.0,1.0,80.00
2024-12-21 15:11:12.259,0.73820597,0.8932879,0.7379457,0.70462793,0.72930074,0.56733525,0.12973405,0.54130375,0.89811134,0.36747223,0.22590555,0.81338924,0.8471321,0.19393292,0.02493059,0.77579147,0.6614619,-0.13614775,-0.3063694,0.42930338,840.5128,815.9341,801.8315,830.84247,1079.0476,0.18255615234375,0.23486328125,0.9512939453125,-1.203765869140625,-2.669219970703125,-1.428070068359375,1,1.0,1.0,1.0,1.0,80.00
2024-12-21 15:11:12.261,0.73820597,0.8932879,0.7379457,0.70462793,0.72930074,0.56733525,0.12973405,0.54130375,0.89811134,0.36747223,0.22590555,0.81338924,0.8471321,0.19393292,0.02493059,0.77579147,0.6614619,-0.13614775,-0.3063694,0.42930338,828.4249,809.89014,801.4286,819.15753,740.989,0.18255615234375,0.23486328125,0.9512939453125,-1.203765869140625,-2.669219970703125,-1.428070068359375,1,1.0,1.0,1.0,1.0,80.00
2024-12-21 15:11:12.261,0.73820597,0.8932879,0.7379457,0.70462793,0.72930074,0.56733525,0.12973405,0.54130375,0.89811134,0.36747223,0.22590555,0.81338924,0.8471321,0.19393292,0.02493059,0.77579147,0.6614619,-0.13614775,-0.3063694,0.42930338,816.337,806.6667,802.23444,820.7692,685.78754,0.18255615234375,0.23486328125,0.9512939453125,-1.203765869140625,-2.669219970703125,-1.428070068359375,1,1.0,1.0,1.0,1.0,80.00
2024-12-21 15:11:12.262,0.73820597,0.8932879,0.7379457,0.70462793,0.72930074,0.56733525,0.12973405,0.54130375,0.89811134,0.36747223,0.22590555,0.81338924,0.8471321,0.19393292,0.02493059,0.77579147,0.6614619,-0.13614775,-0.3063694,0.42930338,817.9487,801.8315,802.6374,820.3663,928.7546,0.18255615234375,0.23486328125,0.9512939453125,-1.203765869140625,-2.669219970703125,-1.428070068359375,1,1.0,1.0,1.0,1.0,80.00
2024-12-21 15:11:12.262,0.73820597,0.8932879,0.7379457,0.70462793,0.72930074,0.56733525,0.12973405,0.54130375,0.89811134,0.36747223,0.22590555,0.81338924,0.8471321,0.19393292,0.02493059,0.77579147,0.6614619,-0.13614775,-0.3063694,0.42930338,820.7692,800.2198,804.65204,821.5751,749.85345,0.18255615234375,0.23486328125,0.9512939453125,-1.203765869140625,-2.669219970703125,-1.428070068359375,1,1.0,1.0,1.0,1.0,80.00
2024-12-21 15:11:12.339,0.73820597,0.8932879,0.7379457,0.70462793,0.72930074,0.56733525,0.12973405,0.54130375,0.89811134,0.36747223,0.22590555,0.81338924,0.8471321,0.19393292,0.02493059,0.77579147,0.6614619,-0.13614775,-0.3063694,0.42930338,823.1868,795.38464,806.26373,827.2161,529.0476,0.18499755859375,0.237548828125,0.95281982421875,-1.0467529296875,-1.31591796875,-0.979461669921875,1,1.0,1.0,1.0,1.0,80.00
2024-12-21 15:11:12.340,0.73820597,0.8932879,0.7379457,0.70462793,0.72930074,0.56733525,0.12973405,0.54130375,0.89811134,0.36747223,0.22590555,0.81338924,0.8471321,0.19393292,0.02493059,0.77579147,0.6614619,-0.13614775,-0.3063694,0.42930338,815.5311,791.3553,808.2784,824.3956,655.56775,0.18499755859375,0.237548828125,0.95281982421875,-1.0467529296875,-1.31591796875,-0.979461669921875,1,1.0,1.0,1.0,1.0,80.00
2024-12-21 15:11:12.340,0.73820597,0.8932879,0.7379457,0.70462793,0.72930074,0.56733525,0.12973405,0.54130375,0.89811134,0.36747223,0.22590555,0.81338924,0.8471321,0.19393292,0.02493059,0.77579147,0.6614619,-0.13614775,-0.3063694,0.42930338,817.1429,789.7436,809.0842,818.7546,544.7619,0.18499755859375,0.237548828125,0.95281982421875,-1.0467529296875,-1.31591796875,-0.979461669921875,1,1.0,1.0,1.0,1.0,80.00
2024-12-21 15:11:12.340,0.73820597,0.8932879,0.7379457,0.70462793,0.72930074,0.56733525,0.12973405,0.54130375,0.89811134,0.36747223,0.22590555,0.81338924,0.8471321,0.19393292,0.02493059,0.77579147,0.6614619,-0.13614775,-0.3063694,0.42930338,816.337,795.78754,805.4579,803.44324,383.1868,0.18499755859375,0.237548828125,0.95281982421875,-1.0467529296875,-1.31591796875,-0.979461669921875,1,1.0,1.0,1.0,1.0,80.00
2024-12-21 15:11:12.341,0.73820597,0.8932879,0.7379457,0.70462793,0.72930074,0.56733525,0.12973405,0.54130375,0.89811134,0.36747223,0.22590555,0.81338924,0.8471321,0.19393292,0.02493059,0.77579147,0.6614619,-0.13614775,-0.3063694,0.42930338,810.293,796.1905,802.23444,795.38464,432.74725,0.18499755859375,0.237548828125,0.95281982421875,-1.0467529296875,-1.31591796875,-0.979461669921875,1,1.0,1.0,1.0,1.0,80.00
2024-12-21 15:11:12.341,0.73820597,0.8932879,0.7379457,0.70462793,0.72930074,0.56733525,0.12973405,0.54130375,0.89811134,0.36747223,0.22590555,0.81338924,0.8471321,0.19393292,0.02493059,0.77579147,0.6614619,-0.13614775,-0.3063694,0.42930338,817.1429,799.41394,801.02563,809.4872,680.54944,0.18499755859375,0.237548828125,0.95281982421875,-1.0467529296875,-1.31591796875,-0.979461669921875,1,1.0,1.0,1.0,1.0,80.00
2024-12-21 15:11:12.341,0.73820597,0.8932879,0.7379457,0.70462793,0.72930074,0.56733525,0.12973405,0.54130375,0.89811134,0.36747223,0.22590555,0.81338924,0.8471321,0.19393292,0.02493059,0.77579147,0.6614619,-0.13614775,-0.3063694,0.42930338,814.3223,807.8755,799.011,827.2161,1033.5165,0.18499755859375,0.237548828125,0.95281982421875,-1.0467529296875,-1.31591796875,-0.979461669921875,1,1.0,1.0,1.0,1.0,80.00
2024-12-21 15:11:12.341,0.73820597,0.8932879,0.7379457,0.70462793,0.72930074,0.56733525,0.12973405,0.54130375,0.89811134,0.36747223,0.22590555,0.81338924,0.8471321,0.19393292,0.02493059,0.77579147,0.6614619,-0.13614775,-0.3063694,0.42930338,806.26373,803.8461,800.2198,810.293,915.4579,0.18499755859375,0.237548828125,0.95281982421875,-1.0467529296875,-1.31591796875,-0.979461669921875,1,1.0,1.0,1.0,1.0,80.00
2024-12-21 15:11:12.342,0.73820597,0.8932879,0.7379457,0.70462793,0.72930074,0.56733525,0.12973405,0.54130375,0.89811134,0.36747223,0.22590555,0.81338924,0.8471321,0.19393292,0.02493059,0.77579147,0.6614619,-0.13614775,-0.3063694,0.42930338,811.0989,798.60803,799.81683,792.5641,405.75092,0.18499755859375,0.237548828125,0.95281982421875,-1.0467529296875,-1.31591796875,-0.979461669921875,1,1.0,1.0,1.0,1.0,80.00
2024-12-21 15:11:12.342,0.73820597,0.8932879,0.7379457,0.70462793,0.72930074,0.56733525,0.12973405,0.54130375,0.89811134,0.36747223,0.22590555,0.81338924,0.8471321,0.19393292,0.02493059,0.77579147,0.6614619,-0.13614775,-0.3063694,0.42930338,809.89014,791.3553,797.8022,804.65204,369.08426,0.18499755859375,0.237548828125,0.95281982421875,-1.0467529296875,-1.31591796875,-0.979461669921875,1,1.0,1.0,1.0,1.0,80.00
2024-12-21 15:11:12.344,0.73820597,0.8932879,0.7379457,0.70462793,0.72930074,0.56733525,0.12973405,0.54130375,0.89811134,0.36747223,0.22590555,0.81338924,0.8471321,0.19393292,0.02493059,0.77579147,0.6614619,-0.13614775,-0.3063694,0.42930338,817.5458,792.1612,800.2198,813.5165,604.3956,0.18499755859375,0.237548828125,0.95281982421875,-1.0467529296875,-1.31591796875,-0.979461669921875,1,1.0,1.0,1.0,1.0,80.00
2024-12-21 15:11:12.345,0.73820597,0.8932879,0.7379457,0.70462793,0.72930074,0.56733525,0.12973405,0.54130375,0.89811134,0.36747223,0.22590555,0.81338924,0.8471321,0.19393292,0.02493059,0.77579147,0.6614619,-0.13614775,-0.3063694,0.42930338,830.0366,798.20514,803.0403,822.381,601.1722,0.18499755859375,0.237548828125,0.95281982421875,-1.0467529296875,-1.31591796875,-0.979461669921875,1,1.0,1.0,1.0,1.0,80.00
2024-12-21 15:11:12.371,0.73820597,0.8932879,0.7379457,0.70462793,0.72930074,0.56733525,0.12973405,0.54130375,0.89811134,0.36747223,0.22590555,0.81338924,0.8471321,0.19393292,0.02493059,0.77579147,0.6614619,-0.13614775,-0.3063694,0.42930338,820.7692,800.6227,803.0403,829.2308,425.09158,0.17633056640625,0.23529052734375,0.95538330078125,0.4486083984375,-1.1663818359375,0.19439697265625,1,1.0,1.0,1.0,1.0,80.00
2024-12-21 15:11:12.372,0.73820597,0.8932879,0.7379457,0.70462793,0.72930074,0.56733525,0.12973405,0.54130375,0.89811134,0.36747223,0.22590555,0.81338924,0.8471321,0.19393292,0.02493059,0.77579147,0.6614619,-0.13614775,-0.3063694,0.42930338,801.8315,791.3553,803.0403,820.3663,487.94873,0.17633056640625,0.23529052734375,0.95538330078125,0.4486083984375,-1.1663818359375,0.19439697265625,1,1.0,1.0,1.0,1.0,80.00
2024-12-21 15:11:12.372,0.73820597,0.8932879,0.7379457,0.70462793,0.72930074,0.56733525,0.12973405,0.54130375,0.89811134,0.36747223,0.22590555,0.81338924,0.8471321,0.19393292,0.02493059,0.77579147,0.6614619,-0.13614775,-0.3063694,0.42930338,795.38464,774.83514,807.0696,813.1135,812.3077,0.17633056640625,0.23529052734375,0.95538330078125,0.4486083984375,-1.1663818359375,0.19439697265625,1,1.0,1.0,1.0,1.0,80.00
2024-12-21 15:11:12.373,0.73820597,0.8932879,0.7379457,0.70462793,0.72930074,0.56733525,0.12973405,0.54130375,0.89811134,0.36747223,0.22590555,0.81338924,0.8471321,0.19393292,0.02493059,0.77579147,0.6614619,-0.13614775,-0.3063694,0.42930338,809.0842,775.64105,803.44324,810.293,494.3956,0.17633056640625,0.23529052734375,0.95538330078125,0.4486083984375,-1.1663818359375,0.19439697265625,1,1.0,1.0,1.0,1.0,80.00
2024-12-21 15:11:12.373,0.73820597,0.8932879,0.7379457,0.70462793,0.72930074,0.56733525,0.12973405,0.54130375,0.89811134,0.36747223,0.22590555,0.81338924,0.8471321,0.19393292,0.02493059,0.77579147,0.6614619,-0.13614775,-0.3063694,0.42930338,813.5165,775.2381,807.0696,817.9487,348.5348,0.17633056640625,0.23529052734375,0.95538330078125,0.4486083984375,-1.1663818359375,0.19439697265625,1,1.0,1.0,1.0,1.0,80.00
2024-12-21 15:11:12.373,0.73820597,0.8932879,0.7379457,0.70462793,0.72930074,0.56733525,0.12973405,0.54130375,0.89811134,0.36747223,0.22590555,0.81338924,0.8471321,0.19393292,0.02493059,0.77579147,0.6614619,-0.13614775,-0.3063694,0.42930338,807.0696,767.5824,808.2784,830.0366,807.0696,0.17633056640625,0.23529052734375,0.95538330078125,0.4486083984375,-1.1663818359375,0.19439697265625,1,1.0,1.0,1.0,1.0,80.00
2024-12-21 15:11:12.373,0.73820597,0.8932879,0.7379457,0.70462793,0.72930074,0.56733525,0.12973405,0.54130375,0.89811134,0.36747223,0.22590555,0.81338924,0.8471321,0.19393292,0.02493059,0.77579147,0.6614619,-0.13614775,-0.3063694,0.42930338,805.8608,771.2088,808.68134,811.9048,827.619,0.17633056640625,0.23529052734375,0.95538330078125,0.4486083984375,-1.1663818359375,0.19439697265625,1,1.0,1.0,1.0,1.0,80.00
2024-12-21 15:11:12.374,0.73820597,0.8932879,0.7379457,0.70462793,0.72930074,0.56733525,0.12973405,0.54130375,0.89811134,0.36747223,0.22590555,0.81338924,0.8471321,0.19393292,0.02493059,0.77579147,0.6614619,-0.13614775,-0.3063694,0.42930338,811.9048,785.31134,814.3223,802.6374,458.5348,0.17633056640625,0.23529052734375,0.95538330078125,0.4486083984375,-1.1663818359375,0.19439697265625,1,1.0,1.0,1.0,1.0,80.00
2024-12-21 15:11:12.374,0.73820597,0.8932879,0.7379457,0.70462793,0.72930074,0.56733525,0.12973405,0.54130375,0.89811134,0.36747223,0.22590555,0.81338924,0.8471321,0.19393292,0.02493059,0.77579147,0.6614619,-0.13614775,-0.3063694,0.42930338,812.71063,784.5055,812.3077,821.1722,366.26373,0.17633056640625,0.23529052734375,0.95538330078125,0.4486083984375,-1.1663818359375,0.19439697265625,1,1.0,1.0,1.0,1.0,80.00
2024-12-21 15:11:12.374,0.70278484,0.8932879,0.7301085,0.6794403,0.6877763,0.56733525,0.12961185,0.4920618,0.91091913,0.36747223,0.23995027,0.7877475,0.817826,0.19393292,0.0049373857,0.7315594,0.6686825,-0.13614775,-0.31366232,0.41409087,812.71063,782.0879,809.4872,822.7839,936.4103,0.17633056640625,0.23529052734375,0.95538330078125,0.4486083984375,-1.1663818359375,0.19439697265625,1,1.0,1.0,1.0,1.0,80.00
2024-12-21 15:11:12.376,0.70278484,0.8932879,0.7301085,0.6794403,0.6877763,0.56733525,0.12961185,0.4920618,0.91091913,0.36747223,0.23995027,0.7877475,0.817826,0.19393292,0.0049373857,0.7315594,0.6686825,-0.13614775,-0.31366232,0.41409087,815.5311,790.14655,809.4872,817.1429,1199.1208,0.17633056640625,0.23529052734375,0.95538330078125,0.4486083984375,-1.1663818359375,0.19439697265625,1,1.0,1.0,1.0,1.0,80.00
2024-12-21 15:11:12.376,0.70278484,0.8932879,0.7301085,0.6794403,0.6877763,0.56733525,0.12961185,0.4920618,0.91091913,0.36747223,0.23995027,0.7877475,0.817826,0.19393292,0.0049373857,0.7315594,0.6686825,-0.13614775,-0.31366232,0.41409087,810.696,790.9524,807.0696,808.2784,497.21613,0.17633056640625,0.23529052734375,0.95538330078125,0.4486083984375,-1.1663818359375,0.19439697265625,1,1.0,1.0,1.0,1.0,80.00
2024-12-21 15:11:12.407,0.70278484,0.8932879,0.7301085,0.6794403,0.6877763,0.56733525,0.12961185,0.4920618,0.91091913,0.36747223,0.23995027,0.7877475,0.817826,0.19393292,0.0049373857,0.7315594,0.6686825,-0.13614775,-0.31366232,0.41409087,810.293,784.5055,804.2491,802.6374,402.12454,0.17266845703125,0.23590087890625,0.95611572265625,0.994415283203125,-2.25799560546875,0.441131591796875,1,1.0,1.0,1.0,1.0,80.00
2024-12-21 15:11:12.408,0.70278484,0.8932879,0.7301085,0.6794403,0.6877763,0.56733525,0.12961185,0.4920618,0.91091913,0.36747223,0.23995027,0.7877475,0.817826,0.19393292,0.0049373857,0.7315594,0.6686825,-0.13614775,-0.31366232,0.41409087,831.2454,791.3553,805.05493,821.978,589.0842,0.17266845703125,0.23590087890625,0.95611572265625,0.994415283203125,-2.25799560546875,0.441131591796875,1,1.0,1.0,1.0,1.0,80.00
2024-12-21 15:11:12.409,0.70278484,0.8932879,0.7301085,0.6794403,0.6877763,0.56733525,0.12961185,0.4920618,0.91091913,0.36747223,0.23995027,0.7877475,0.817826,0.19393292,0.0049373857,0.7315594,0.6686825,-0.13614775,-0.31366232,0.41409087,841.7216,799.011,807.0696,832.8571,616.4835,0.17266845703125,0.23590087890625,0.95611572265625,0.994415283203125,-2.25799560546875,0.441131591796875,1,1.0,1.0,1.0,1.0,80.00
2024-12-21 15:11:12.409,0.70278484,0.8932879,0.7301085,0.6794403,0.6877763,0.56733525,0.12961185,0.4920618,0.91091913,0.36747223,0.23995027,0.7877475,0.817826,0.19393292,0.0049373857,0.7315594,0.6686825,-0.13614775,-0.31366232,0.41409087,813.91943,792.1612,808.2784,813.1135,618.0952,0.17266845703125,0.23590087890625,0.95611572265625,0.994415283203125,-2.25799560546875,0.441131591796875,1,1.0,1.0,1.0,1.0,80.00
2024-12-21 15:11:12.409,0.70278484,0.8932879,0.7301085,0.6794403,0.6877763,0.56733525,0.12961185,0.4920618,0.91091913,0.36747223,0.23995027,0.7877475,0.817826,0.19393292,0.0049373857,0.7315594,0.6686825,-0.13614775,-0.31366232,0.41409087,785.31134,792.5641,811.0989,801.8315,668.46155,0.17266845703125,0.23590087890625,0.95611572265625,0.994415283203125,-2.25799560546875,0.441131591796875,1,1.0,1.0,1.0,1.0,80.00
2024-12-21 15:11:12.410,0.70278484,0.8932879,0.7301085,0.6794403,0.6877763,0.56733525,0.12961185,0.4920618,0.91091913,0.36747223,0.23995027,0.7877475,0.817826,0.19393292,0.0049373857,0.7315594,0.6686825,-0.13614775,-0.31366232,0.41409087,791.3553,801.8315,809.0842,794.9817,697.47253,0.17266845703125,0.23590087890625,0.95611572265625,0.994415283203125,-2.25799560546875,0.441131591796875,1,1.0,1.0,1.0,1.0,80.00
2024-12-21 15:11:12.410,0.70278484,0.8932879,0.7301085,0.6794403,0.6877763,0.56733525,0.12961185,0.4920618,0.91091913,0.36747223,0.23995027,0.7877475,0.817826,0.19393292,0.0049373857,0.7315594,0.6686825,-0.13614775,-0.31366232,0.41409087,803.0403,799.41394,805.8608,791.3553,618.0952,0.17266845703125,0.23590087890625,0.95611572265625,0.994415283203125,-2.25799560546875,0.441131591796875,1,1.0,1.0,1.0,1.0,80.00
2024-12-21 15:11:12.410,0.70278484,0.8932879,0.7301085,0.6794403,0.6877763,0.56733525,0.12961185,0.4920618,0.91091913,0.36747223,0.23995027,0.7877475,0.817826,0.19393292,0.0049373857,0.7315594,0.6686825,-0.13614775,-0.31366232,0.41409087,808.2784,794.9817,807.8755,801.8315,603.5897,0.17266845703125,0.23590087890625,0.95611572265625,0.994415283203125,-2.25799560546875,0.441131591796875,1,1.0,1.0,1.0,1.0,80.00
2024-12-21 15:11:12.411,0.70278484,0.8932879,0.7301085,0.6794403,0.6877763,0.56733525,0.12961185,0.4920618,0.91091913,0.36747223,0.23995027,0.7877475,0.817826,0.19393292,0.0049373857,0.7315594,0.6686825,-0.13614775,-0.31366232,0.41409087,809.0842,799.011,809.0842,809.89014,728.9011,0.17266845703125,0.23590087890625,0.95611572265625,0.994415283203125,-2.25799560546875,0.441131591796875,1,1.0,1.0,1.0,1.0,80.00
2024-12-21 15:11:12.411,0.70278484,0.8932879,0.7301085,0.6794403,0.6877763,0.56733525,0.12961185,0.4920618,0.91091913,0.36747223,0.23995027,0.7877475,0.817826,0.19393292,0.0049373857,0.7315594,0.6686825,-0.13614775,-0.31366232,0.41409087,803.8461,794.17584,809.89014,803.0403,742.1978,0.17266845703125,0.23590087890625,0.95611572265625,0.994415283203125,-2.25799560546875,0.441131591796875,1,1.0,1.0,1.0,1.0,80.00
2024-12-21 15:11:12.411,0.70278484,0.8932879,0.7301085,0.6794403,0.6877763,0.56733525,0.12961185,0.4920618,0.91091913,0.36747223,0.23995027,0.7877475,0.817826,0.19393292,0.0049373857,0.7315594,0.6686825,-0.13614775,-0.31366232,0.41409087,799.81683,783.69965,805.4579,793.36993,441.61172,0.17266845703125,0.23590087890625,0.95611572265625,0.994415283203125,-2.25799560546875,0.441131591796875,1,1.0,1.0,1.0,1.0,80.00
2024-12-21 15:11:12.411,0.70278484,0.8932879,0.7301085,0.6794403,0.6877763,0.56733525,0.12961185,0.4920618,0.91091913,0.36747223,0.23995027,0.7877475,0.817826,0.19393292,0.0049373857,0.7315594,0.6686825,-0.13614775,-0.31366232,0.41409087,806.26373,788.1319,807.0696,801.8315,291.3187,0.17266845703125,0.23590087890625,0.95611572265625,0.994415283203125,-2.25799560546875,0.441131591796875,1,1.0,1.0,1.0,1.0,80.00
2024-12-21 15:11:12.439,0.70278484,0.8932879,0.7301085,0.6794403,0.6877763,0.56733525,0.12961185,0.4920618,0.91091913,0.36747223,0.23995027,0.7877475,0.817826,0.19393292,0.0049373857,0.7315594,0.6686825,-0.13614775,-0.31366232,0.41409087,818.7546,796.1905,815.5311,812.3077,612.0513,0.17791748046875,0.2418212890625,0.9537353515625,-0.179443359375,-2.504730224609375,0.530853271484375,1,1.0,1.0,1.0,1.0,80.00
2024-12-21 15:11:12.440,0.70278484,0.8932879,0.7301085,0.6794403,0.6877763,0.56733525,0.12961185,0.4920618,0.91091913,0.36747223,0.23995027,0.7877475,0.817826,0.19393292,0.0049373857,0.7315594,0.6686825,-0.13614775,-0.31366232,0.41409087,819.15753,790.9524,814.3223,817.5458,1098.7913,0.17791748046875,0.2418212890625,0.9537353515625,-0.179443359375,-2.504730224609375,0.530853271484375,1,1.0,1.0,1.0,1.0,80.00
2024-12-21 15:11:12.440,0.70278484,0.8932879,0.7301085,0.6794403,0.6877763,0.56733525,0.12961185,0.4920618,0.91091913,0.36747223,0.23995027,0.7877475,0.817826,0.19393292,0.0049373857,0.7315594,0.6686825,-0.13614775,-0.31366232,0.41409087,814.7253,784.90845,813.91943,819.15753,761.13556,0.17791748046875,0.2418212890625,0.9537353515625,-0.179443359375,-2.504730224609375,0.530853271484375,1,1.0,1.0,1.0,1.0,80.00
2024-12-21 15:11:12.440,0.70278484,0.8932879,0.7301085,0.6794403,0.6877763,0.56733525,0.12961185,0.4920618,0.91091913,0.36747223,0.23995027,0.7877475,0.817826,0.19393292,0.0049373857,0.7315594,0.6686825,-0.13614775,-0.31366232,0.41409087,803.44324,786.9231,813.1135,812.71063,326.37363,0.17791748046875,0.2418212890625,0.9537353515625,-0.179443359375,-2.504730224609375,0.530853271484375,1,1.0,1.0,1.0,1.0,80.00
2024-12-21 15:11:12.441,0.70278484,0.8932879,0.7301085,0.6794403,0.6877763,0.56733525,0.12961185,0.4920618,0.91091913,0.36747223,0.23995027,0.7877475,0.817826,0.19393292,0.0049373857,0.7315594,0.6686825,-0.13614775,-0.31366232,0.41409087,794.57874,785.31134,812.3077,824.7985,443.22345,0.17791748046875,0.2418212890625,0.9537353515625,-0.179443359375,-2.504730224609375,0.530853271484375,1,1.0,1.0,1.0,1.0,80.00
2024-12-21 15:11:12.441,0.70278484,0.8932879,0.7301085,0.6794403,0.6877763,0.56733525,0.12961185,0.4920618,0.91091913,0.36747223,0.23995027,0.7877475,0.817826,0.19393292,0.0049373857,0.7315594,0.6686825,-0.13614775,-0.31366232,0.41409087,800.2198,780.4762,811.0989,836.8865,560.87915,0.17791748046875,0.2418212890625,0.9537353515625,-0.179443359375,-2.504730224609375,0.530853271484375,1,1.0,1.0,1.0,1.0,80.00
2024-12-21 15:11:12.441,0.70278484,0.8932879,0.7301085,0.6794403,0.6877763,0.56733525,0.12961185,0.4920618,0.91091913,0.36747223,0.23995027,0.7877475,0.817826,0.19393292,0.0049373857,0.7315594,0.6686825,-0.13614775,-0.31366232,0.41409087,813.91943,780.4762,807.0696,817.9487,653.1502,0.17791748046875,0.2418212890625,0.9537353515625,-0.179443359375,-2.504730224609375,0.530853271484375,1,1.0,1.0,1.0,1.0,80.00
2024-12-21 15:11:12.442,0.70278484,0.8932879,0.7301085,0.6794403,0.6877763,0.56733525,0.12961185,0.4920618,0.91091913,0.36747223,0.23995027,0.7877475,0.817826,0.19393292,0.0049373857,0.7315594,0.6686825,-0.13614775,-0.31366232,0.41409087,826.0073,784.10254,808.2784,807.8755,391.64835,0.17791748046875,0.2418212890625,0.9537353515625,-0.179443359375,-2.504730224609375,0.530853271484375,1,1.0,1.0,1.0,1.0,80.00
2024-12-21 15:11:12.442,0.70278484,0.8932879,0.7301085,0.6794403,0.6877763,0.56733525,0.12961185,0.4920618,0.91091913,0.36747223,0.23995027,0.7877475,0.817826,0.19393292,0.0049373857,0.7315594,0.6686825,-0.13614775,-0.31366232,0.41409087,805.8608,772.4176,813.91943,805.8608,496.00732,0.17791748046875,0.2418212890625,0.9537353515625,-0.179443359375,-2.504730224609375,0.530853271484375,1,1.0,1.0,1.0,1.0,80.00
2024-12-21 15:11:12.442,0.70278484,0.8932879,0.7301085,0.6794403,0.6877763,0.56733525,0.12961185,0.4920618,0.91091913,0.36747223,0.23995027,0.7877475,0.817826,0.19393292,0.0049373857,0.7315594,0.6686825,-0.13614775,-0.31366232,0.41409087,793.7729,769.19415,815.12823,807.47253,786.52014,0.17791748046875,0.2418212890625,0.9537353515625,-0.179443359375,-2.504730224609375,0.530853271484375,1,1.0,1.0,1.0,1.0,80.00
2024-12-21 15:11:12.443,0.70278484,0.8932879,0.7301085,0.6794403,0.6877763,0.56733525,0.12961185,0.4920618,0.91091913,0.36747223,0.23995027,0.7877475,0.817826,0.19393292,0.0049373857,0.7315594,0.6686825,-0.13614775,-0.31366232,0.41409087,814.7253,784.10254,811.0989,821.978,587.47253,0.17791748046875,0.2418212890625,0.9537353515625,-0.179443359375,-2.504730224609375,0.530853271484375,1,1.0,1.0,1.0,1.0,80.00
2024-12-21 15:11:12.443,0.6684146,0.8932879,0.7282732,0.66746,0.6302975,0.56733525,0.11441868,0.42889544,0.90383124,0.36747223,0.29259533,0.78547394,0.77449566,0.19393292,-0.005064837,0.68282175,0.6698944,-0.13614775,-0.32194567,0.4035436,823.9927,783.2967,811.50183,827.2161,602.7839,0.17791748046875,0.2418212890625,0.9537353515625,-0.179443359375,-2.504730224609375,0.530853271484375,1,1.0,1.0,1.0,1.0,80.00
2024-12-21 15:11:12.505,0.6684146,0.8932879,0.7282732,0.66746,0.6302975,0.56733525,0.11441868,0.42889544,0.90383124,0.36747223,0.29259533,0.78547394,0.77449566,0.19393292,-0.005064837,0.68282175,0.6698944,-0.13614775,-0.32194567,0.4035436,810.293,780.4762,809.4872,803.44324,627.3626,0.17791748046875,0.2418212890625,0.9537353515625,-0.179443359375,-2.504730224609375,0.530853271484375,1,1.0,1.0,1.0,1.0,80.00
2024-12-21 15:11:12.505,0.6684146,0.8932879,0.7282732,0.66746,0.6302975,0.56733525,0.11441868,0.42889544,0.90383124,0.36747223,0.29259533,0.78547394,0.77449566,0.19393292,-0.005064837,0.68282175,0.6698944,-0.13614775,-0.32194567,0.4035436,805.05493,782.49084,809.0842,786.52014,533.47986,0.17791748046875,0.2418212890625,0.9537353515625,-0.179443359375,-2.504730224609375,0.530853271484375,1,1.0,1.0,1.0,1.0,80.00
2024-12-21 15:11:12.506,0.6684146,0.8932879,0.7282732,0.66746,0.6302975,0.56733525,0.11441868,0.42889544,0.90383124,0.36747223,0.29259533,0.78547394,0.77449566,0.19393292,-0.005064837,0.68282175,0.6698944,-0.13614775,-0.32194567,0.4035436,810.696,779.2674,808.2784,791.75824,414.21246,0.17791748046875,0.2418212890625,0.9537353515625,-0.179443359375,-2.504730224609375,0.530853271484375,1,1.0,1.0,1.0,1.0,80.00
2024-12-21 15:11:12.506,0.6684146,0.8932879,0.7282732,0.66746,0.6302975,0.56733525,0.11441868,0.42889544,0.90383124,0.36747223,0.29259533,0.78547394,0.77449566,0.19393292,-0.005064837,0.68282175,0.6698944,-0.13614775,-0.32194567,0.4035436,811.0989,778.0586,807.0696,802.23444,469.011,0.17791748046875,0.2418212890625,0.9537353515625,-0.179443359375,-2.504730224609375,0.530853271484375,1,1.0,1.0,1.0,1.0,80.00
2024-12-21 15:11:12.506,0.6684146,0.8932879,0.7282732,0.66746,0.6302975,0.56733525,0.11441868,0.42889544,0.90383124,0.36747223,0.29259533,0.78547394,0.77449566,0.19393292,-0.005064837,0.68282175,0.6698944,-0.13614775,-0.32194567,0.4035436,815.5311,780.4762,812.3077,813.5165,711.5751,0.17791748046875,0.2418212890625,0.9537353515625,-0.179443359375,-2.504730224609375,0.530853271484375,1,1.0,1.0,1.0,1.0,80.00
2024-12-21 15:11:12.507,0.6684146,0.8932879,0.7282732,0.66746,0.6302975,0.56733525,0.11441868,0.42889544,0.90383124,0.36747223,0.29259533,0.78547394,0.77449566,0.19393292,-0.005064837,0.68282175,0.6698944,-0.13614775,-0.32194567,0.4035436,815.5311,785.31134,811.50183,813.1135,681.3553,0.17791748046875,0.2418212890625,0.9537353515625,-0.179443359375,-2.504730224609375,0.530853271484375,1,1.0,1.0,1.0,1.0,80.00
2024-12-21 15:11:12.507,0.6684146,0.8932879,0.7282732,0.66746,0.6302975,0.56733525,0.11441868,0.42889544,0.90383124,0.36747223,0.29259533,0.78547394,0.77449566,0.19393292,-0.005064837,0.68282175,0.6698944,-0.13614775,-0.32194567,0.4035436,805.05493,782.8938,807.8755,797.8022,503.663,0.17791748046875,0.2418212890625,0.9537353515625,-0.179443359375,-2.504730224609375,0.530853271484375,1,1.0,1.0,1.0,1.0,80.00
2024-12-21 15:11:12.507,0.6684146,0.8932879,0.7282732,0.66746,0.6302975,0.56733525,0.11441868,0.42889544,0.90383124,0.36747223,0.29259533,0.78547394,0.77449566,0.19393292,-0.005064837,0.68282175,0.6698944,-0.13614775,-0.32194567,0.4035436,804.2491,786.9231,813.1135,798.20514,421.86813,0.17791748046875,0.2418212890625,0.9537353515625,-0.179443359375,-2.504730224609375,0.530853271484375,1,1.0,1.0,1.0,1.0,80.00
2024-12-21 15:11:12.507,0.6684146,0.8932879,0.7282732,0.66746,0.6302975,0.56733525,0.11441868,0.42889544,0.90383124,0.36747223,0.29259533,0.78547394,0.77449566,0.19393292,-0.005064837,0.68282175,0.6698944,-0.13614775,-0.32194567,0.4035436,807.47253,789.34064,819.5604,822.7839,795.38464,0.17791748046875,0.2418212890625,0.9537353515625,-0.179443359375,-2.504730224609375,0.530853271484375,1,1.0,1.0,1.0,1.0,80.00
2024-12-21 15:11:12.508,0.6684146,0.8932879,0.7282732,0.66746,0.6302975,0.56733525,0.11441868,0.42889544,0.90383124,0.36747223,0.29259533,0.78547394,0.77449566,0.19393292,-0.005064837,0.68282175,0.6698944,-0.13614775,-0.32194567,0.4035436,806.26373,792.5641,816.337,824.7985,906.99634,0.17791748046875,0.2418212890625,0.9537353515625,-0.179443359375,-2.504730224609375,0.530853271484375,1,1.0,1.0,1.0,1.0,80.00
2024-12-21 15:11:12.508,0.6684146,0.8932879,0.7282732,0.66746,0.6302975,0.56733525,0.11441868,0.42889544,0.90383124,0.36747223,0.29259533,0.78547394,0.77449566,0.19393292,-0.005064837,0.68282175,0.6698944,-0.13614775,-0.32194567,0.4035436,805.8608,791.3553,815.9341,816.7399,533.8828,0.17791748046875,0.2418212890625,0.9537353515625,-0.179443359375,-2.504730224609375,0.530853271484375,1,1.0,1.0,1.0,1.0,80.00
2024-12-21 15:11:12.508,0.6684146,0.8932879,0.7282732,0.66746,0.6302975,0.56733525,0.11441868,0.42889544,0.90383124,0.36747223,0.29259533,0.78547394,0.77449566,0.19393292,-0.005064837,0.68282175,0.6698944,-0.13614775,-0.32194567,0.4035436,811.0989,778.86444,818.3516,813.1135,615.6777,0.17791748046875,0.2418212890625,0.9537353515625,-0.179443359375,-2.504730224609375,0.530853271484375,1,1.0,1.0,1.0,1.0,80.00
2024-12-21 15:11:12.539,0.6684146,0.8932879,0.7282732,0.66746,0.6302975,0.56733525,0.11441868,0.42889544,0.90383124,0.36747223,0.29259533,0.78547394,0.77449566,0.19393292,-0.005064837,0.68282175,0.6698944,-0.13614775,-0.32194567,0.4035436,813.5165,772.4176,815.5311,808.2784,772.4176,0.1822509765625,0.2388916015625,0.94757080078125,-0.31402587890625,-1.398162841796875,1.18133544921875,1,1.0,1.0,1.0,1.0,80.00
2024-12-21 15:11:12.540,0.6684146,0.8932879,0.7282732,0.66746,0.6302975,0.56733525,0.11441868,0.42889544,0.90383124,0.36747223,0.29259533,0.78547394,0.77449566,0.19393292,-0.005064837,0.68282175,0.6698944,-0.13614775,-0.32194567,0.4035436,811.50183,773.6264,814.7253,817.5458,575.78754,0.1822509765625,0.2388916015625,0.94757080078125,-0.31402587890625,-1.398162841796875,1.18133544921875,1,1.0,1.0,1.0,1.0,80.00
2024-12-21 15:11:12.540,0.6684146,0.8932879,0.7282732,0.66746,0.6302975,0.56733525,0.11441868,0.42889544,0.90383124,0.36747223,0.29259533,0.78547394,0.77449566,0.19393292,-0.005064837,0.68282175,0.6698944,-0.13614775,-0.32194567,0.4035436,813.5165,776.8498,813.5165,830.0366,731.7216,0.1822509765625,0.2388916015625,0.94757080078125,-0.31402587890625,-1.398162841796875,1.18133544921875,1,1.0,1.0,1.0,1.0,80.00
2024-12-21 15:11:12.540,0.6684146,0.8932879,0.7282732,0.66746,0.6302975,0.56733525,0.11441868,0.42889544,0.90383124,0.36747223,0.29259533,0.78547394,0.77449566,0.19393292,-0.005064837,0.68282175,0.6698944,-0.13614775,-0.32194567,0.4035436,812.3077,780.4762,815.12823,830.4396,1063.3334,0.1822509765625,0.2388916015625,0.94757080078125,-0.31402587890625,-1.398162841796875,1.18133544921875,1,1.0,1.0,1.0,1.0,80.00
2024-12-21 15:11:12.541,0.6684146,0.8932879,0.7282732,0.66746,0.6302975,0.56733525,0.11441868,0.42889544,0.90383124,0.36747223,0.29259533,0.78547394,0.77449566,0.19393292,-0.005064837,0.68282175,0.6698944,-0.13614775,-0.32194567,0.4035436,804.65204,782.49084,816.337,816.7399,883.6264,0.1822509765625,0.2388916015625,0.94757080078125,-0.31402587890625,-1.398162841796875,1.18133544921875,1,1.0,1.0,1.0,1.0,80.00
2024-12-21 15:11:12.541,0.6684146,0.8932879,0.7282732,0.66746,0.6302975,0.56733525,0.11441868,0.42889544,0.90383124,0.36747223,0.29259533,0.78547394,0.77449566,0.19393292,-0.005064837,0.68282175,0.6698944,-0.13614775,-0.32194567,0.4035436,815.5311,782.8938,815.5311,817.1429,625.34796,0.1822509765625,0.2388916015625,0.94757080078125,-0.31402587890625,-1.398162841796875,1.18133544921875,1,1.0,1.0,1.0,1.0,80.00
2024-12-21 15:11:12.541,0.6684146,0.8932879,0.7282732,0.66746,0.6302975,0.56733525,0.11441868,0.42889544,0.90383124,0.36747223,0.29259533,0.78547394,0.77449566,0.19393292,-0.005064837,0.68282175,0.6698944,-0.13614775,-0.32194567,0.4035436,818.7546,782.49084,817.9487,817.9487,597.5458,0.1822509765625,0.2388916015625,0.94757080078125,-0.31402587890625,-1.398162841796875,1.18133544921875,1,1.0,1.0,1.0,1.0,80.00
2024-12-21 15:11:12.541,0.6684146,0.8932879,0.7282732,0.66746,0.6302975,0.56733525,0.11441868,0.42889544,0.90383124,0.36747223,0.29259533,0.78547394,0.77449566,0.19393292,-0.005064837,0.68282175,0.6698944,-0.13614775,-0.32194567,0.4035436,836.08057,791.75824,821.1722,824.7985,923.1135,0.1822509765625,0.2388916015625,0.94757080078125,-0.31402587890625,-1.398162841796875,1.18133544921875,1,1.0,1.0,1.0,1.0,80.00
2024-12-21 15:11:12.542,0.6684146,0.8932879,0.7282732,0.66746,0.6302975,0.56733525,0.11441868,0.42889544,0.90383124,0.36747223,0.29259533,0.78547394,0.77449566,0.19393292,-0.005064837,0.68282175,0.6698944,-0.13614775,-0.32194567,0.4035436,838.9011,801.8315,820.7692,829.6337,1220.8792,0.1822509765625,0.2388916015625,0.94757080078125,-0.31402587890625,-1.398162841796875,1.18133544921875,1,1.0,1.0,1.0,1.0,80.00
2024-12-21 15:11:12.542,0.6684146,0.8932879,0.7282732,0.66746,0.6302975,0.56733525,0.11441868,0.42889544,0.90383124,0.36747223,0.29259533,0.78547394,0.77449566,0.19393292,-0.005064837,0.68282175,0.6698944,-0.13614775,-0.32194567,0.4035436,807.0696,810.293,818.3516,815.5311,743.00366,0.1822509765625,0.2388916015625,0.94757080078125,-0.31402587890625,-1.398162841796875,1.18133544921875,1,1.0,1.0,1.0,1.0,80.00
2024-12-21 15:11:12.542,0.6684146,0.8932879,0.7282732,0.66746,0.6302975,0.56733525,0.11441868,0.42889544,0.90383124,0.36747223,0.29259533,0.78547394,0.77449566,0.19393292,-0.005064837,0.68282175,0.6698944,-0.13614775,-0.32194567,0.4035436,801.8315,815.12823,815.12823,812.71063,503.26007,0.1822509765625,0.2388916015625,0.94757080078125,-0.31402587890625,-1.398162841796875,1.18133544921875,1,1.0,1.0,1.0,1.0,80.00
2024-12-21 15:11:12.543,0.6684146,0.8932879,0.7282732,0.66746,0.6302975,0.56733525,0.11441868,0.42889544,0.90383124,0.36747223,0.29259533,0.78547394,0.77449566,0.19393292,-0.005064837,0.68282175,0.6698944,-0.13614775,-0.32194567,0.4035436,816.337,814.3223,810.293,808.68134,626.1539,0.1822509765625,0.2388916015625,0.94757080078125,-0.31402587890625,-1.398162841796875,1.18133544921875,1,1.0,1.0,1.0,1.0,80.00
2024-12-21 15:11:12.605,0.6684146,0.8932879,0.7282732,0.66746,0.6302975,0.56733525,0.11441868,0.42889544,0.90383124,0.36747223,0.29259533,0.78547394,0.77449566,0.19393292,-0.005064837,0.68282175,0.6698944,-0.13614775,-0.32194567,0.4035436,827.619,810.293,805.05493,807.0696,603.1868,0.1729736328125,0.2340087890625,0.948486328125,-0.097198486328125,-2.03369140625,0.994415283203125,1,1.0,1.0,1.0,1.0,80.00
2024-12-21 15:11:12.606,0.643572,0.8932879,0.7337589,0.66798085,0.56607413,0.56733525,0.098560534,0.36939248,0.86037505,0.36747223,0.4019639,0.7940362,0.7229742,0.19393292,0.0020030555,0.6361767,0.6681037,-0.13614775,-0.33160523,0.40030998,827.2161,804.65204,805.4579,812.71063,574.17584,0.1729736328125,0.2340087890625,0.948486328125,-0.097198486328125,-2.03369140625,0.994415283203125,1,1.0,1.0,1.0,1.0,80.00
2024-12-21 15:11:12.608,0.643572,0.8932879,0.7337589,0.66798085,0.56607413,0.56733525,0.098560534,0.36939248,0.86037505,0.36747223,0.4019639,0.7940362,0.7229742,0.19393292,0.0020030555,0.6361767,0.6681037,-0.13614775,-0.33160523,0.40030998,813.91943,796.5934,807.0696,790.54944,845.34796,0.1729736328125,0.2340087890625,0.948486328125,-0.097198486328125,-2.03369140625,0.994415283203125,1,1.0,1.0,1.0,1.0,80.00
2024-12-21 15:11:12.608,0.643572,0.8932879,0.7337589,0.66798085,0.56607413,0.56733525,0.098560534,0.36939248,0.86037505,0.36747223,0.4019639,0.7940362,0.7229742,0.19393292,0.0020030555,0.6361767,0.6681037,-0.13614775,-0.33160523,0.40030998,804.2491,802.23444,808.68134,787.72894,864.68866,0.1729736328125,0.2340087890625,0.948486328125,-0.097198486328125,-2.03369140625,0.994415283203125,1,1.0,1.0,1.0,1.0,80.00
2024-12-21 15:11:12.608,0.643572,0.8932879,0.7337589,0.66798085,0.56607413,0.56733525,0.098560534,0.36939248,0.86037505,0.36747223,0.4019639,0.7940362,0.7229742,0.19393292,0.0020030555,0.6361767,0.6681037,-0.13614775,-0.33160523,0.40030998,820.7692,809.4872,809.89014,803.44324,601.1722,0.1729736328125,0.2340087890625,0.948486328125,-0.097198486328125,-2.03369140625,0.994415283203125,1,1.0,1.0,1.0,1.0,80.00
2024-12-21 15:11:12.609,0.643572,0.8932879,0.7337589,0.66798085,0.56607413,0.56733525,0.098560534,0.36939248,0.86037505,0.36747223,0.4019639,0.7940362,0.7229742,0.19393292,0.0020030555,0.6361767,0.6681037,-0.13614775,-0.33160523,0.40030998,823.9927,810.696,811.9048,810.696,701.50183,0.1729736328125,0.2340087890625,0.948486328125,-0.097198486328125,-2.03369140625,0.994415283203125,1,1.0,1.0,1.0,1.0,80.00
2024-12-21 15:11:12.609,0.643572,0.8932879,0.7337589,0.66798085,0.56607413,0.56733525,0.098560534,0.36939248,0.86037505,0.36747223,0.4019639,0.7940362,0.7229742,0.19393292,0.0020030555,0.6361767,0.6681037,-0.13614775,-0.33160523,0.40030998,820.3663,815.9341,814.3223,816.337,791.75824,0.1729736328125,0.2340087890625,0.948486328125,-0.097198486328125,-2.03369140625,0.994415283203125,1,1.0,1.0,1.0,1.0,80.00
2024-12-21 15:11:12.609,0.643572,0.8932879,0.7337589,0.66798085,0.56607413,0.56733525,0.098560534,0.36939248,0.86037505,0.36747223,0.4019639,0.7940362,0.7229742,0.19393292,0.0020030555,0.6361767,0.6681037,-0.13614775,-0.33160523,0.40030998,824.3956,814.7253,812.71063,821.5751,1057.6923,0.1729736328125,0.2340087890625,0.948486328125,-0.097198486328125,-2.03369140625,0.994415283203125,1,1.0,1.0,1.0,1.0,80.00
2024-12-21 15:11:12.609,0.643572,0.8932879,0.7337589,0.66798085,0.56607413,0.56733525,0.098560534,0.36939248,0.86037505,0.36747223,0.4019639,0.7940362,0.7229742,0.19393292,0.0020030555,0.6361767,0.6681037,-0.13614775,-0.33160523,0.40030998,824.3956,817.9487,814.7253,813.5165,1019.81683,0.1729736328125,0.2340087890625,0.948486328125,-0.097198486328125,-2.03369140625,0.994415283203125,1,1.0,1.0,1.0,1.0,80.00
2024-12-21 15:11:12.610,0.643572,0.8932879,0.7337589,0.66798085,0.56607413,0.56733525,0.098560534,0.36939248,0.86037505,0.36747223,0.4019639,0.7940362,0.7229742,0.19393292,0.0020030555,0.6361767,0.6681037,-0.13614775,-0.33160523,0.40030998,828.022,813.5165,812.3077,802.6374,707.1429,0.1729736328125,0.2340087890625,0.948486328125,-0.097198486328125,-2.03369140625,0.994415283203125,1,1.0,1.0,1.0,1.0,80.00
2024-12-21 15:11:12.610,0.643572,0.8932879,0.7337589,0.66798085,0.56607413,0.56733525,0.098560534,0.36939248,0.86037505,0.36747223,0.4019639,0.7940362,0.7229742,0.19393292,0.0020030555,0.6361767,0.6681037,-0.13614775,-0.33160523,0.40030998,818.3516,805.4579,807.8755,805.4579,844.94507,0.1729736328125,0.2340087890625,0.948486328125,-0.097198486328125,-2.03369140625,0.994415283203125,1,1.0,1.0,1.0,1.0,80.00
2024-12-21 15:11:12.610,0.643572,0.8932879,0.7337589,0.66798085,0.56607413,0.56733525,0.098560534,0.36939248,0.86037505,0.36747223,0.4019639,0.7940362,0.7229742,0.19393292,0.0020030555,0.6361767,0.6681037,-0.13614775,-0.33160523,0.40030998,809.4872,802.6374,809.89014,813.5165,972.674,0.1729736328125,0.2340087890625,0.948486328125,-0.097198486328125,-2.03369140625,0.994415283203125,1,1.0,1.0,1.0,1.0,80.00
2024-12-21 15:11:12.639,0.643572,0.8932879,0.7337589,0.66798085,0.56607413,0.56733525,0.098560534,0.36939248,0.86037505,0.36747223,0.4019639,0.7940362,0.7229742,0.19393292,0.0020030555,0.6361767,0.6681037,-0.13614775,-0.33160523,0.40030998,806.26373,807.8755,813.91943,811.0989,747.8388,0.17413330078125,0.2314453125,0.95928955078125,-0.28411865234375,-2.34771728515625,0.545806884765625,1,1.0,1.0,1.0,1.0,80.00
2024-12-21 15:11:12.639,0.643572,0.8932879,0.7337589,0.66798085,0.56607413,0.56733525,0.098560534,0.36939248,0.86037505,0.36747223,0.4019639,0.7940362,0.7229742,0.19393292,0.0020030555,0.6361767,0.6681037,-0.13614775,-0.33160523,0.40030998,797.8022,805.4579,810.293,801.8315,491.5751,0.17413330078125,0.2314453125,0.95928955078125,-0.28411865234375,-2.34771728515625,0.545806884765625,1,1.0,1.0,1.0,1.0,80.00
2024-12-21 15:11:12.640,0.643572,0.8932879,0.7337589,0.66798085,0.56607413,0.56733525,0.098560534,0.36939248,0.86037505,0.36747223,0.4019639,0.7940362,0.7229742,0.19393292,0.0020030555,0.6361767,0.6681037,-0.13614775,-0.33160523,0.40030998,796.1905,786.52014,804.65204,807.8755,645.4945,0.17413330078125,0.2314453125,0.95928955078125,-0.28411865234375,-2.34771728515625,0.545806884765625,1,1.0,1.0,1.0,1.0,80.00
2024-12-21 15:11:12.640,0.643572,0.8932879,0.7337589,0.66798085,0.56607413,0.56733525,0.098560534,0.36939248,0.86037505,0.36747223,0.4019639,0.7940362,0.7229742,0.19393292,0.0020030555,0.6361767,0.6681037,-0.13614775,-0.33160523,0.40030998,812.3077,790.54944,810.696,828.8278,791.75824,0.17413330078125,0.2314453125,0.95928955078125,-0.28411865234375,-2.34771728515625,0.545806884765625,1,1.0,1.0,1.0,1.0,80.00
2024-12-21 15:11:12.641,0.643572,0.8932879,0.7337589,0.66798085,0.56607413,0.56733525,0.098560534,0.36939248,0.86037505,0.36747223,0.4019639,0.7940362,0.7229742,0.19393292,0.0020030555,0.6361767,0.6681037,-0.13614775,-0.33160523,0.40030998,814.3223,797.3993,815.12823,814.7253,522.6007,0.17413330078125,0.2314453125,0.95928955078125,-0.28411865234375,-2.34771728515625,0.545806884765625,1,1.0,1.0,1.0,1.0,80.00
2024-12-21 15:11:12.641,0.643572,0.8932879,0.7337589,0.66798085,0.56607413,0.56733525,0.098560534,0.36939248,0.86037505,0.36747223,0.4019639,0.7940362,0.7229742,0.19393292,0.0020030555,0.6361767,0.6681037,-0.13614775,-0.33160523,0.40030998,800.2198,788.93774,808.68134,794.57874,653.95605,0.17413330078125,0.2314453125,0.95928955078125,-0.28411865234375,-2.34771728515625,0.545806884765625,1,1.0,1.0,1.0,1.0,80.00
2024-12-21 15:11:12.641,0.643572,0.8932879,0.7337589,0.66798085,0.56607413,0.56733525,0.098560534,0.36939248,0.86037505,0.36747223,0.4019639,0.7940362,0.7229742,0.19393292,0.0020030555,0.6361767,0.6681037,-0.13614775,-0.33160523,0.40030998,798.60803,780.4762,806.6667,805.05493,799.011,0.17413330078125,0.2314453125,0.95928955078125,-0.28411865234375,-2.34771728515625,0.545806884765625,1,1.0,1.0,1.0,1.0,80.00
2024-12-21 15:11:12.642,0.643572,0.8932879,0.7337589,0.66798085,0.56607413,0.56733525,0.098560534,0.36939248,0.86037505,0.36747223,0.4019639,0.7940362,0.7229742,0.19393292,0.0020030555,0.6361767,0.6681037,-0.13614775,-0.33160523,0.40030998,805.05493,784.90845,808.2784,814.3223,674.5055,0.17413330078125,0.2314453125,0.95928955078125,-0.28411865234375,-2.34771728515625,0.545806884765625,1,1.0,1.0,1.0,1.0,80.00
2024-12-21 15:11:12.642,0.643572,0.8932879,0.7337589,0.66798085,0.56607413,0.56733525,0.098560534,0.36939248,0.86037505,0.36747223,0.4019639,0.7940362,0.7229742,0.19393292,0.0020030555,0.6361767,0.6681037,-0.13614775,-0.33160523,0.40030998,807.8755,797.8022,807.8755,817.5458,645.89746,0.17413330078125,0.2314453125,0.95928955078125,-0.28411865234375,-2.34771728515625,0.545806884765625,1,1.0,1.0,1.0,1.0,80.00
2024-12-21 15:11:12.642,0.643572,0.8932879,0.7337589,0.66798085,0.56607413,0.56733525,0.098560534,0.36939248,0.86037505,0.36747223,0.4019639,0.7940362,0.7229742,0.19393292,0.0020030555,0.6361767,0.6681037,-0.13614775,-0.33160523,0.40030998,805.4579,802.23444,808.68134,817.9487,507.28937,0.17413330078125,0.2314453125,0.95928955078125,-0.28411865234375,-2.34771728515625,0.545806884765625,1,1.0,1.0,1.0,1.0,80.00
2024-12-21 15:11:12.643,0.643572,0.8932879,0.7337589,0.66798085,0.56607413,0.56733525,0.098560534,0.36939248,0.86037505,0.36747223,0.4019639,0.7940362,0.7229742,0.19393292,0.0020030555,0.6361767,0.6681037,-0.13614775,-0.33160523,0.40030998,800.2198,805.8608,811.0989,811.0989,695.8608,0.17413330078125,0.2314453125,0.95928955078125,-0.28411865234375,-2.34771728515625,0.545806884765625,1,1.0,1.0,1.0,1.0,80.00
2024-12-21 15:11:12.643,0.643572,0.8932879,0.7337589,0.66798085,0.56607413,0.56733525,0.098560534,0.36939248,0.86037505,0.36747223,0.4019639,0.7940362,0.7229742,0.19393292,0.0020030555,0.6361767,0.6681037,-0.13614775,-0.33160523,0.40030998,790.9524,801.4286,808.2784,811.0989,872.3443,0.17413330078125,0.2314453125,0.95928955078125,-0.28411865234375,-2.34771728515625,0.545806884765625,1,1.0,1.0,1.0,1.0,80.00
2024-12-21 15:11:12.705,0.643572,0.8932879,0.7337589,0.66798085,0.56607413,0.56733525,0.098560534,0.36939248,0.86037505,0.36747223,0.4019639,0.7940362,0.7229742,0.19393292,0.0020030555,0.6361767,0.6681037,-0.13614775,-0.33160523,0.40030998,798.60803,799.011,807.0696,809.0842,567.326,0.17645263671875,0.228759765625,0.96044921875,-0.73272705078125,-2.213134765625,-0.485992431640625,1,1.0,1.0,1.0,1.0,80.00
2024-12-21 15:11:12.705,0.643572,0.8932879,0.7337589,0.66798085,0.56607413,0.56733525,0.098560534,0.36939248,0.86037505,0.36747223,0.4019639,0.7940362,0.7229742,0.19393292,0.0020030555,0.6361767,0.6681037,-0.13614775,-0.33160523,0.40030998,814.3223,803.8461,811.50183,816.7399,750.65936,0.17645263671875,0.228759765625,0.96044921875,-0.73272705078125,-2.213134765625,-0.485992431640625,1,1.0,1.0,1.0,1.0,80.00
2024-12-21 15:11:12.706,0.643572,0.8932879,0.7337589,0.66798085,0.56607413,0.56733525,0.098560534,0.36939248,0.86037505,0.36747223,0.4019639,0.7940362,0.7229742,0.19393292,0.0020030555,0.6361767,0.6681037,-0.13614775,-0.33160523,0.40030998,818.7546,811.0989,811.50183,820.7692,860.2564,0.17645263671875,0.228759765625,0.96044921875,-0.73272705078125,-2.213134765625,-0.485992431640625,1,1.0,1.0,1.0,1.0,80.00
2024-12-21 15:11:12.706,0.62499315,0.8932879,0.74600405,0.6786979,0.500645,0.56733525,0.096415594,0.3224931,0.793308,0.36747223,0.4887817,0.79605025,0.67671806,0.19393292,0.019701572,0.60294867,0.6688083,-0.13614775,-0.34268478,0.40094188,808.2784,814.3223,807.0696,801.02563,530.2564,0.17645263671875,0.228759765625,0.96044921875,-0.73272705078125,-2.213134765625,-0.485992431640625,1,1.0,1.0,1.0,1.0,80.00
2024-12-21 15:11:12.708,0.62499315,0.8932879,0.74600405,0.6786979,0.500645,0.56733525,0.096415594,0.3224931,0.793308,0.36747223,0.4887817,0.79605025,0.67671806,0.19393292,0.019701572,0.60294867,0.6688083,-0.13614775,-0.34268478,0.40094188,794.57874,815.5311,801.8315,795.38464,408.97437,0.17645263671875,0.228759765625,0.96044921875,-0.73272705078125,-2.213134765625,-0.485992431640625,1,1.0,1.0,1.0,1.0,80.00
2024-12-21 15:11:12.708,0.62499315,0.8932879,0.74600405,0.6786979,0.500645,0.56733525,0.096415594,0.3224931,0.793308,0.36747223,0.4887817,0.79605025,0.67671806,0.19393292,0.019701572,0.60294867,0.6688083,-0.13614775,-0.34268478,0.40094188,802.23444,822.7839,803.44324,807.8755,576.5934,0.17645263671875,0.228759765625,0.96044921875,-0.73272705078125,-2.213134765625,-0.485992431640625,1,1.0,1.0,1.0,1.0,80.00
2024-12-21 15:11:12.709,0.62499315,0.8932879,0.74600405,0.6786979,0.500645,0.56733525,0.096415594,0.3224931,0.793308,0.36747223,0.4887817,0.79605025,0.67671806,0.19393292,0.019701572,0.60294867,0.6688083,-0.13614775,-0.34268478,0.40094188,796.1905,828.8278,807.8755,807.47253,890.87915,0.17645263671875,0.228759765625,0.96044921875,-0.73272705078125,-2.213134765625,-0.485992431640625,1,1.0,1.0,1.0,1.0,80.00
2024-12-21 15:11:12.709,0.62499315,0.8932879,0.74600405,0.6786979,0.500645,0.56733525,0.096415594,0.3224931,0.793308,0.36747223,0.4887817,0.79605025,0.67671806,0.19393292,0.019701572,0.60294867,0.6688083,-0.13614775,-0.34268478,0.40094188,791.75824,827.619,808.68134,799.41394,783.69965,0.17645263671875,0.228759765625,0.96044921875,-0.73272705078125,-2.213134765625,-0.485992431640625,1,1.0,1.0,1.0,1.0,80.00
2024-12-21 15:11:12.709,0.62499315,0.8932879,0.74600405,0.6786979,0.500645,0.56733525,0.096415594,0.3224931,0.793308,0.36747223,0.4887817,0.79605025,0.67671806,0.19393292,0.019701572,0.60294867,0.6688083,-0.13614775,-0.34268478,0.40094188,802.23444,818.7546,807.47253,794.9817,440.0,0.17645263671875,0.228759765625,0.96044921875,-0.73272705078125,-2.213134765625,-0.485992431640625,1,1.0,1.0,1.0,1.0,80.00
2024-12-21 15:11:12.710,0.62499315,0.8932879,0.74600405,0.6786979,0.500645,0.56733525,0.096415594,0.3224931,0.793308,0.36747223,0.4887817,0.79605025,0.67671806,0.19393292,0.019701572,0.60294867,0.6688083,-0.13614775,-0.34268478,0.40094188,801.4286,805.8608,806.6667,799.41394,443.22345,0.17645263671875,0.228759765625,0.96044921875,-0.73272705078125,-2.213134765625,-0.485992431640625,1,1.0,1.0,1.0,1.0,80.00
2024-12-21 15:11:12.710,0.62499315,0.8932879,0.74600405,0.6786979,0.500645,0.56733525,0.096415594,0.3224931,0.793308,0.36747223,0.4887817,0.79605025,0.67671806,0.19393292,0.019701572,0.60294867,0.6688083,-0.13614775,-0.34268478,0.40094188,796.1905,794.9817,808.2784,808.2784,614.0659,0.17645263671875,0.228759765625,0.96044921875,-0.73272705078125,-2.213134765625,-0.485992431640625,1,1.0,1.0,1.0,1.0,80.00
2024-12-21 15:11:12.711,0.62499315,0.8932879,0.74600405,0.6786979,0.500645,0.56733525,0.096415594,0.3224931,0.793308,0.36747223,0.4887817,0.79605025,0.67671806,0.19393292,0.019701572,0.60294867,0.6688083,-0.13614775,-0.34268478,0.40094188,806.26373,792.5641,811.50183,815.5311,797.8022,0.17645263671875,0.228759765625,0.96044921875,-0.73272705078125,-2.213134765625,-0.485992431640625,1,1.0,1.0,1.0,1.0,80.00
2024-12-21 15:11:12.738,0.62499315,0.8932879,0.74600405,0.6786979,0.500645,0.56733525,0.096415594,0.3224931,0.793308,0.36747223,0.4887817,0.79605025,0.67671806,0.19393292,0.019701572,0.60294867,0.6688083,-0.13614775,-0.34268478,0.40094188,816.337,787.326,811.9048,818.3516,720.0366,0.17645263671875,0.228759765625,0.96044921875,-0.73272705078125,-2.213134765625,-0.485992431640625,1,1.0,1.0,1.0,1.0,80.00
2024-12-21 15:11:12.739,0.62499315,0.8932879,0.74600405,0.6786979,0.500645,0.56733525,0.096415594,0.3224931,0.793308,0.36747223,0.4887817,0.79605025,0.67671806,0.19393292,0.019701572,0.60294867,0.6688083,-0.13614775,-0.34268478,0.40094188,800.2198,780.07324,810.293,805.8608,679.34064,0.17645263671875,0.228759765625,0.96044921875,-0.73272705078125,-2.213134765625,-0.485992431640625,1,1.0,1.0,1.0,1.0,80.00
